Data from 3_57 pm cloudy_Subt2__3__15-59-37-631.txt Node

Date: Tue Oct 07 15:59:37 EDT 2025
User: brett
Spectrometer: USB4F03499
Trigger mode: 4
Integration Time (sec): 1.000000E-2
Scans to average: 1
Electric dark correction enabled: true
Nonlinearity correction enabled: true
Boxcar width: 0
XAxis mode: Wavelengths
Number of Pixels in Spectrum: 3648
>>>>>Begin Spectral Data<<<<<
345.386	8.37503
345.605	8.37503
345.824	8.37503
346.044	9.60852
346.263	-6.95907
346.482	25.14649
346.701	-27.66599
346.92	22.1408
347.139	-8.30283
347.358	-2.14467
347.577	-9.4243
347.796	-22.85918
348.015	10.05097
348.234	6.91889
348.453	20.01673
348.672	-11.54558
348.891	-2.36908
349.11	-12.43973
349.329	130.08826
349.548	210.18225
349.767	224.3587
349.986	233.13973
350.205	197.93394
350.424	228.56741
350.643	252.22116
350.862	240.98961
351.08	214.1149
351.299	224.03982
351.518	213.73952
351.737	250.64466
351.956	235.01391
352.174	180.29692
352.393	212.19671
352.612	203.03106
352.831	219.27801
353.049	207.24649
353.268	232.88089
353.487	218.6148
353.705	243.51851
353.924	239.65545
354.143	247.77246
354.361	245.73858
354.58	265.7643
354.798	235.20504
355.017	250.69096
355.236	229.63512
355.454	195.81552
355.673	252.85494
355.891	220.64571
356.11	213.41982
356.328	318.15067
356.547	243.95706
356.765	228.7398
356.984	264.4512
357.202	279.65285
357.42	262.6765
357.639	226.24392
357.857	271.86839
358.076	283.65769
358.294	281.20623
358.512	235.80004
358.731	331.3004
358.949	284.59544
359.167	261.33313
359.386	293.30814
359.604	228.51598
359.822	271.15661
360.04	281.88143
360.259	332.75459
360.477	256.30564
360.695	259.83902
360.913	284.15831
361.131	237.74899
361.35	291.135
361.568	305.41833
361.786	278.66365
362.004	250.88664
362.222	315.95923
362.44	278.07303
362.658	261.48858
362.876	284.97942
363.094	291.26124
363.312	267.98226
363.53	302.63099
363.749	298.12085
363.967	273.07891
364.184	292.59311
364.402	288.44877
364.62	314.53427
364.838	286.99383
365.056	253.80534
365.274	285.5762
365.492	306.74798
365.71	293.86772
365.928	255.86469
366.146	291.20711
366.364	327.72198
366.581	316.73705
366.799	332.99153
367.017	311.04256
367.235	297.97563
367.453	360.20418
367.67	353.65369
367.888	294.70822
368.106	410.95339
368.323	367.37488
368.541	359.00533
368.759	350.9938
368.977	342.78938
369.194	370.2567
369.412	373.38807
369.629	376.71905
369.847	388.74696
370.065	379.29306
370.282	419.61211
370.5	432.98268
370.717	396.18672
370.935	367.17477
371.152	398.858
371.37	389.18306
371.588	415.24775
371.805	422.82364
372.022	385.27999
372.24	453.46127
372.457	424.39366
372.675	411.81855
372.892	424.34981
373.11	442.5095
373.327	466.57977
373.544	434.77298
373.762	408.79666
373.979	438.70511
374.196	468.90527
374.414	419.46937
374.631	478.10818
374.848	481.41343
375.066	444.25117
375.283	444.5238
375.5	482.36795
375.717	451.18951
375.935	438.96176
376.152	483.81706
376.369	433.57392
376.586	479.32189
376.803	484.61222
377.02	483.18138
377.238	482.52135
377.455	510.38003
377.672	464.14426
377.889	443.948
378.106	458.85702
378.323	477.73032
378.54	498.03135
378.757	487.68712
378.974	450.62635
379.191	499.29863
379.408	494.38544
379.625	467.80325
379.842	488.51631
380.059	484.02911
380.276	486.4382
380.493	481.78442
380.71	520.80526
380.927	463.57455
381.143	468.26957
381.36	547.24263
381.577	490.01979
381.794	545.03695
382.011	495.56608
382.228	504.3919
382.444	519.87528
382.661	512.89876
382.878	525.07424
383.095	549.73739
383.311	488.29778
383.528	566.85329
383.745	516.62851
383.962	552.49555
384.178	557.49399
384.395	545.37944
384.612	572.79384
384.828	534.89402
385.045	548.61081
385.261	579.09747
385.478	547.91423
385.695	538.25048
385.911	558.30679
386.128	544.97127
386.344	522.78357
386.561	580.3214
386.777	571.71602
386.994	565.64268
387.21	561.63477
387.427	534.34799
387.643	501.07102
387.86	555.58936
388.076	524.291
388.292	594.63954
388.509	530.92806
388.725	564.72692
388.942	582.03594
389.158	577.0547
389.374	530.07496
389.591	545.27438
389.807	576.07616
390.023	524.83641
390.239	617.80038
390.456	589.90643
390.672	628.30138
390.888	582.60228
391.104	575.70699
391.321	566.48764
391.537	610.21069
391.753	583.48321
391.969	651.33599
392.185	626.88811
392.401	662.88054
392.618	633.17346
392.834	611.04003
393.05	661.27948
393.266	634.62796
393.482	698.85016
393.698	685.51083
393.914	670.40416
394.13	625.29884
394.346	685.73832
394.562	640.40074
394.778	634.58245
394.994	713.01594
395.21	646.89174
395.426	766.37511
395.642	695.41798
395.858	734.51825
396.073	708.18759
396.289	760.93279
396.505	759.67218
396.721	785.26762
396.937	790.30231
397.153	730.36156
397.369	802.16209
397.584	853.38409
397.8	787.58807
398.016	774.66336
398.232	825.17417
398.447	848.72186
398.663	834.54112
398.879	814.55309
399.094	842.40993
399.31	829.5585
399.526	799.08642
399.741	798.10745
399.957	818.60781
400.173	824.36597
400.388	876.1246
400.604	880.67143
400.82	887.42476
401.035	964.56316
401.251	902.49462
401.466	950.632
401.682	996.91229
401.897	943.54699
402.113	1007.73978
402.328	1059.87009
402.544	1026.49303
402.759	1109.06568
402.974	1092.81422
403.19	1088.52483
403.405	1167.821
403.621	1177.79068
403.836	1240.61912
404.051	1238.254
404.267	1323.87381
404.482	1202.54109
404.697	1280.01541
404.913	1309.44437
405.128	1349.64189
405.343	1358.5472
405.559	1359.01864
405.774	1403.2799
405.989	1514.11318
406.204	1496.14162
406.42	1577.4269
406.635	1570.39759
406.85	1504.62397
407.065	1568.67571
407.28	1646.02859
407.495	1647.32975
407.71	1612.6344
407.926	1677.76289
408.141	1794.88793
408.356	1768.14748
408.571	1780.168
408.786	1774.30607
409.001	1794.54987
409.216	1805.9441
409.431	1822.22161
409.646	1888.84671
409.861	1863.14664
410.076	1927.5034
410.291	1954.79147
410.506	1964.0276
410.721	1884.93849
410.936	1908.77553
411.15	1973.30644
411.365	1976.85999
411.58	1922.68253
411.795	1925.78147
412.01	2088.63041
412.225	2012.33885
412.439	1993.44992
412.654	2019.36986
412.869	1993.48767
413.084	2048.44686
413.299	2061.12925
413.513	2034.72002
413.728	2132.94725
413.943	2155.36977
414.157	2145.73104
414.372	2230.02568
414.587	2189.22495
414.801	2294.02573
415.016	2258.70332
415.231	2171.32854
415.445	2242.73565
415.66	2247.37992
415.874	2285.52181
416.089	2198.28667
416.304	2382.62904
416.518	2379.20755
416.733	2416.05537
416.947	2372.89766
417.162	2393.97335
417.376	2515.00941
417.59	2568.28214
417.805	2570.41336
418.019	2438.57301
418.234	2465.53196
418.448	2480.51202
418.663	2461.49811
418.877	2539.86526
419.091	2502.44111
419.306	2545.46193
419.52	2531.28478
419.734	2574.58575
419.949	2578.94807
420.163	2705.02109
420.377	2494.10986
420.591	2632.13292
420.806	2691.7028
421.02	2570.03921
421.234	2659.54687
421.448	2732.85165
421.663	2673.46201
421.877	2751.41993
422.091	2717.09767
422.305	2665.18466
422.519	2763.19114
422.733	2836.92988
422.947	2707.69203
423.161	2653.26584
423.376	2724.40353
423.59	2759.99818
423.804	2727.0219
424.018	2790.54482
424.232	2766.44214
424.446	2791.40945
424.66	2703.30355
424.874	2741.64769
425.088	2731.29652
425.302	2755.75931
425.515	2862.93381
425.729	2884.52501
425.943	2888.7968
426.157	2935.30475
426.371	2831.01752
426.585	2855.38191
426.799	2939.66837
427.013	3018.98999
427.226	3058.74752
427.44	2944.62515
427.654	2947.71907
427.868	2891.00204
428.081	2961.10382
428.295	2957.04578
428.509	2898.60438
428.723	2906.01862
428.936	2903.81554
429.15	2859.58434
429.364	2946.34693
429.577	2829.21606
429.791	2908.08411
430.005	3061.10531
430.218	2916.41725
430.432	2823.11003
430.645	2831.45441
430.859	2901.24696
431.073	2961.1943
431.286	3033.16875
431.5	3061.91578
431.713	2883.2006
431.927	2894.03259
432.14	2939.93362
432.354	2907.74845
432.567	2886.86369
432.781	3026.93067
432.994	3031.10096
433.207	3159.5818
433.421	3069.1735
433.634	3056.47954
433.848	3086.40816
434.061	3036.19588
434.274	2858.33431
434.488	2928.20158
434.701	2851.92588
434.914	2981.87707
435.127	3092.02931
435.341	3115.46148
435.554	2973.57111
435.767	3185.912
435.98	3185.83485
436.194	3117.56525
436.407	3115.83096
436.62	3323.78262
436.833	3239.82902
437.046	3182.0058
437.259	3139.22878
437.473	3234.51145
437.686	3295.41583
437.899	3181.3095
438.112	3318.76923
438.325	3242.74566
438.538	3266.94504
438.751	3455.33954
438.964	3404.22863
439.177	3352.9114
439.39	3394.28902
439.603	3554.25861
439.816	3428.95795
440.029	3622.42918
440.242	3687.68912
440.455	3823.16535
440.668	3705.19742
440.881	3601.35541
441.094	3573.32035
441.306	3782.86992
441.519	3957.55131
441.732	3944.13644
441.945	3944.79523
442.158	3803.33669
442.37	3693.04469
442.583	4036.45039
442.796	4122.99319
443.009	4130.09008
443.222	3827.23684
443.434	3839.60434
443.647	4127.83452
443.86	4244.67097
444.072	4317.41932
444.285	4206.43657
444.498	4262.6051
444.71	4188.16141
444.923	4231.54577
445.136	4123.0258
445.348	4142.10007
445.561	4146.77101
445.773	4096.36368
445.986	3947.38197
446.198	4296.50038
446.411	4355.84067
446.623	4418.69545
446.836	4449.72649
447.048	4393.56011
447.261	4556.96955
447.473	4457.31737
447.686	4445.39627
447.898	4460.14993
448.11	4734.64594
448.323	4788.71086
448.535	4630.34977
448.748	4462.76429
448.96	4443.72257
449.172	4460.14426
449.385	4311.80217
449.597	4635.92058
449.809	4675.63789
450.021	4728.12627
450.234	4731.38065
450.446	4582.78323
450.658	4513.10072
450.87	4638.82941
451.083	4755.637
451.295	4763.55926
451.507	4732.8443
451.719	4688.39651
451.931	4804.92385
452.143	4809.63357
452.356	4672.61084
452.568	4915.80559
452.78	4824.09004
452.992	4878.86075
453.204	5066.90403
453.416	4885.24554
453.628	4767.60431
453.84	4855.11991
454.052	4830.24474
454.264	5049.12493
454.476	5032.02608
454.688	5271.40319
454.9	5270.08797
455.112	4979.69169
455.324	4893.41766
455.536	4923.30315
455.747	5247.5721
455.959	5120.1809
456.171	5175.12409
456.383	5039.54124
456.595	4958.66187
456.807	4988.19195
457.018	4979.13309
457.23	5177.46405
457.442	5057.61574
457.654	5171.90424
457.865	5223.01246
458.077	5013.57679
458.289	5027.11387
458.501	5068.78207
458.712	5387.22469
458.924	5521.5288
459.136	5244.51173
459.347	5153.24308
459.559	5231.13033
459.77	5441.23576
459.982	5586.59838
460.194	5539.98311
460.405	5268.04324
460.617	5288.83692
460.828	5466.3872
461.04	5485.20809
461.251	5412.06348
461.463	5874.40583
461.674	5689.35956
461.886	5598.84538
462.097	5491.7668
462.309	5657.35244
462.52	5453.71846
462.731	5864.34699
462.943	5501.70264
463.154	5405.28948
463.366	5489.90289
463.577	5733.03735
463.788	5814.22634
464	5883.64628
464.211	5858.77631
464.422	6126.33268
464.634	6088.88272
464.845	6005.883
465.056	6149.02922
465.267	6153.63212
465.478	5818.22212
465.69	6154.46282
465.901	6064.28486
466.112	6127.23894
466.323	6240.33657
466.534	6333.69141
466.745	6324.59837
466.957	6368.7932
467.168	6364.1332
467.379	6257.75607
467.59	6120.82753
467.801	6006.40355
468.012	6339.50196
468.223	6377.98346
468.434	6209.54238
468.645	6584.3345
468.856	6846.0552
469.067	6575.28005
469.278	6636.62284
469.489	6672.06922
469.7	6442.31401
469.911	6411.60693
470.122	6953.15811
470.333	6992.49643
470.543	6666.62921
470.754	6877.50609
470.965	6882.68924
471.176	6909.043
471.387	7195.98559
471.598	6957.21942
471.808	6909.29826
472.019	7195.25275
472.23	7035.72716
472.441	6990.34132
472.651	7093.84095
472.862	7046.19773
473.073	7387.77083
473.283	7203.56726
473.494	7122.92434
473.705	7153.48587
473.915	7092.05514
474.126	7477.40388
474.337	7383.65435
474.547	7602.9736
474.758	7747.8143
474.968	7567.30961
475.179	7724.81129
475.389	7609.50412
475.6	7698.4419
475.81	7858.28563
476.021	7963.12528
476.231	8149.16725
476.442	8009.06094
476.652	7785.71424
476.863	7936.41907
477.073	7875.78975
477.284	8075.40241
477.494	8144.28363
477.704	8472.97063
477.915	8692.69202
478.125	8228.85868
478.335	8464.38016
478.546	8731.35011
478.756	8586.89605
478.966	8870.2244
479.177	8828.82297
479.387	9034.66671
479.597	8914.17068
479.807	9010.60585
480.018	8976.87415
480.228	9174.608
480.438	9178.33118
480.648	9356.53285
480.858	9288.85622
481.068	9087.39698
481.279	9428.18386
481.489	9795.19733
481.699	9822.72752
481.909	9676.29812
482.119	10210.56539
482.329	10225.1496
482.539	10171.33139
482.749	9964.16132
482.959	10325.39023
483.169	10534.44217
483.379	10551.4267
483.589	10479.98894
483.799	10565.52542
484.009	10420.03104
484.219	10655.41668
484.429	10804.5629
484.639	10571.47393
484.849	10740.34558
485.059	11108.08711
485.268	11270.16323
485.478	11114.62297
485.688	10878.25173
485.898	11089.32813
486.108	11297.18607
486.317	11500.05137
486.527	11540.30122
486.737	11696.37474
486.947	11678.07542
487.156	11871.687
487.366	11805.23793
487.576	11577.19788
487.785	11611.91709
487.995	11505.40612
488.205	11933.13185
488.414	12001.59162
488.624	12011.71205
488.834	11944.57053
489.043	11895.68253
489.253	11783.14078
489.462	12041.03422
489.672	12316.10584
489.882	12273.1128
490.091	12384.64833
490.301	12338.85415
490.51	12461.51352
490.72	12502.95951
490.929	12524.10124
491.138	12915.78387
491.348	12755.60425
491.557	12611.48776
491.767	12948.57121
491.976	12946.3112
492.185	12759.31628
492.395	12723.91885
492.604	13097.2548
492.813	12888.72717
493.023	13218.04391
493.232	13056.15917
493.441	13006.2914
493.651	13360.88248
493.86	12964.84135
494.069	13408.66528
494.278	13271.81773
494.488	13464.88931
494.697	13392.42804
494.906	13528.88747
495.115	13623.21724
495.324	13559.16319
495.533	13630.58465
495.743	13850.27586
495.952	13963.8531
496.161	14015.57884
496.37	13985.46458
496.579	14202.84085
496.788	14128.39149
496.997	14495.57919
497.206	14273.59756
497.415	14332.47027
497.624	14344.75297
497.833	14525.32206
498.042	14547.75811
498.251	14847.59744
498.46	14794.4918
498.669	14856.21493
498.878	14838.05519
499.087	14793.33277
499.296	15171.72739
499.504	15117.40289
499.713	15142.22104
499.922	15235.20967
500.131	15298.15743
500.34	15297.77684
500.549	15366.0938
500.757	15196.34923
500.966	15244.06341
501.175	15386.76079
501.384	15615.06319
501.592	15473.53605
501.801	15549.60063
502.01	15668.78458
502.218	15570.56637
502.427	15691.84908
502.636	15542.23905
502.844	15624.85351
503.053	15403.97447
503.262	15576.57203
503.47	15768.45029
503.679	15813.22594
503.887	15782.08912
504.096	15726.46371
504.304	15657.52961
504.513	15846.79634
504.721	15704.93441
504.93	15653.60698
505.138	15967.96484
505.347	15794.07386
505.555	15923.22299
505.764	16058.26946
505.972	15841.76681
506.18	15688.55613
506.389	15840.5549
506.597	15845.01304
506.806	16072.21772
507.014	16046.09038
507.222	15899.6298
507.431	15878.21784
507.639	15899.24533
507.847	15970.38892
508.055	15971.78496
508.264	16033.48622
508.472	16193.78897
508.68	16063.11615
508.888	16181.0132
509.096	16340.31801
509.305	16276.91728
509.513	16191.19643
509.721	16161.9908
509.929	16191.36449
510.137	16115.23699
510.345	16227.19241
510.553	16113.8942
510.762	16343.35883
510.97	16015.4736
511.178	16416.76363
511.386	16572.24941
511.594	16227.75154
511.802	16511.70475
512.01	16447.07893
512.218	16674.76541
512.426	16616.82432
512.634	16542.00507
512.842	16737.02157
513.049	16677.7871
513.257	16773.72697
513.465	16840.80604
513.673	16686.59307
513.881	16870.4246
514.089	16603.05694
514.297	16794.0729
514.504	16961.79721
514.712	16993.93195
514.92	17090.33857
515.128	17494.58651
515.336	17100.42722
515.543	17277.34744
515.751	17299.20707
515.959	17014.67017
516.166	17020.05822
516.374	17058.74799
516.582	17255.55982
516.789	17065.87953
516.997	17230.2312
517.205	16962.63398
517.412	17097.51171
517.62	17155.83037
517.827	17359.92669
518.035	17225.85311
518.243	16955.59674
518.45	17058.45219
518.658	17048.50428
518.865	16903.08789
519.073	17009.63632
519.28	16972.43851
519.488	17048.39237
519.695	16815.70999
519.902	16942.3941
520.11	16736.7738
520.317	17090.35647
520.525	16975.65765
520.732	16763.32024
520.939	17027.18057
521.147	16657.2665
521.354	16919.08238
521.561	16769.80247
521.769	16813.52049
521.976	16717.37417
522.183	17082.98248
522.391	16714.17892
522.598	17174.10707
522.805	16833.47449
523.012	16914.51619
523.219	16951.77424
523.427	17052.306
523.634	17025.86512
523.841	17090.93882
524.048	16849.34963
524.255	17163.70998
524.462	17127.50399
524.669	17006.04956
524.877	17036.67853
525.084	17020.5297
525.291	17045.55383
525.498	17050.09417
525.705	17320.80914
525.912	17317.59175
526.119	17205.47334
526.326	17210.74989
526.533	17213.10673
526.74	17460.03852
526.947	17416.60225
527.153	17607.08974
527.36	17607.55448
527.567	17455.00108
527.774	17520.01497
527.981	17575.95186
528.188	17507.17289
528.395	17764.2487
528.602	17566.3535
528.808	17613.81481
529.015	17644.65454
529.222	17656.33408
529.429	17720.55271
529.635	17722.52409
529.842	17872.83887
530.049	17741.55261
530.256	17744.72055
530.462	17780.62515
530.669	17652.47658
530.876	17963.50885
531.082	17727.44965
531.289	17909.84993
531.495	17853.53671
531.702	18087.59818
531.909	17980.66936
532.115	18111.45738
532.322	17996.52903
532.528	18128.90511
532.735	18019.14423
532.941	18064.33561
533.148	18169.16636
533.354	18264.47721
533.561	18159.21432
533.767	18117.44232
533.974	18154.62694
534.18	18208.3461
534.387	18097.0623
534.593	18234.25257
534.799	18085.14769
535.006	18248.24512
535.212	18158.46406
535.418	18125.54626
535.625	18281.70081
535.831	18339.88295
536.037	18122.74766
536.244	18180.45764
536.45	17830.83391
536.656	18156.8851
536.862	18214.11575
537.068	18198.88759
537.275	18189.24406
537.481	18253.48163
537.687	18562.10513
537.893	18412.14464
538.099	18543.41955
538.305	18174.30118
538.512	18319.71615
538.718	18438.45144
538.924	18334.24145
539.13	18238.70772
539.336	18541.74315
539.542	18346.33644
539.748	18568.25716
539.954	18293.12816
540.16	18579.68872
540.366	18423.42807
540.572	18501.8503
540.778	18480.48221
540.984	18430.17093
541.19	18383.06558
541.396	18367.3048
541.602	18348.25655
541.807	18386.97576
542.013	18469.05929
542.219	18158.09567
542.425	18209.08407
542.631	18284.75496
542.837	18152.07304
543.042	18309.26957
543.248	18173.53005
543.454	18107.89649
543.66	18210.75844
543.865	18067.38543
544.071	18367.03492
544.277	18043.11644
544.483	18219.32604
544.688	18109.89404
544.894	18230.47568
545.1	18134.16424
545.305	18158.38529
545.511	18130.01152
545.716	18073.2301
545.922	18051.53062
546.128	17966.06642
546.333	18105.40554
546.539	18193.93945
546.744	18050.41455
546.95	18138.12644
547.155	18055.47881
547.361	18140.61737
547.566	17958.33426
547.772	17940.65286
547.977	18013.3078
548.182	17974.4544
548.388	18146.9425
548.593	18170.56271
548.799	17966.99915
549.004	18004.91566
549.209	18015.32212
549.415	18248.18318
549.62	18089.6986
549.825	18232.56886
550.031	17724.26603
550.236	18045.87683
550.441	18228.21368
550.646	18056.08782
550.852	18405.09707
551.057	18108.96602
551.262	18305.07917
551.467	18134.54998
551.672	18237.30282
551.878	18362.58415
552.083	18225.15141
552.288	18185.44451
552.493	18010.20793
552.698	18170.77576
552.903	18033.96704
553.108	18328.61638
553.313	18118.58946
553.518	18157.10894
553.723	18221.34951
553.928	18424.72902
554.133	18189.60337
554.338	18148.55394
554.543	18294.96243
554.748	18189.77785
554.953	18391.03454
555.158	18354.42489
555.363	18243.52849
555.568	18224.82211
555.773	18361.73926
555.978	18526.5742
556.182	18324.0476
556.387	18200.61196
556.592	18274.86463
556.797	18538.35337
557.002	18312.67278
557.206	18320.58192
557.411	18465.01094
557.616	18226.61295
557.821	18619.59683
558.025	18441.05864
558.23	18452.33959
558.435	18315.4377
558.64	18322.2081
558.844	18288.92506
559.049	18500.55633
559.253	18534.93498
559.458	18345.40007
559.663	18342.68071
559.867	18418.85607
560.072	18518.72642
560.276	18326.58861
560.481	18289.52252
560.685	18447.71884
560.89	18340.04423
561.094	18158.42855
561.299	18250.6378
561.503	18008.89847
561.708	18309.04109
561.912	18186.15487
562.117	18032.34998
562.321	18270.37203
562.525	18130.63817
562.73	18040.84551
562.934	18201.83073
563.139	17994.904
563.343	18339.79144
563.547	18001.24427
563.752	18115.00471
563.956	18000.59446
564.16	18200.48361
564.364	17950.73912
564.569	18050.76044
564.773	18007.92474
564.977	18011.26526
