Data from Subt1__2__18-43-30-775.txt Node

Date: Tue Oct 07 18:43:30 EDT 2025
User: brett
Spectrometer: USB4F03499
Trigger mode: 4
Integration Time (sec): 1.230000E-3
Scans to average: 1
Electric dark correction enabled: true
Nonlinearity correction enabled: true
Boxcar width: 0
XAxis mode: Wavelengths
Number of Pixels in Spectrum: 3648
>>>>>Begin Spectral Data<<<<<
345.386	-19.07342
345.605	-19.07342
345.824	-19.07342
346.044	36.1842
346.263	-19.08889
346.482	-8.93756
346.701	9.11971
346.92	32.81913
347.139	0.09399
347.358	-32.64498
347.577	12.50506
347.796	1.22287
348.015	3.47831
348.234	5.73896
348.453	-1.03322
348.672	-12.32179
348.891	-10.06046
349.11	0.09405
349.329	-16.82947
349.548	-23.59614
349.767	12.51136
349.986	-3.28953
350.205	9.12253
350.424	-5.54714
350.643	9.11971
350.862	13.62046
351.08	-30.38121
351.299	30.5398
351.518	13.62466
351.737	-13.43518
351.956	11.36735
352.174	1.22206
352.393	-33.72888
352.612	19.25689
352.831	21.52047
353.049	18.13559
353.268	40.70491
353.487	9.10917
353.705	-26.96639
353.924	32.79125
354.143	31.68026
354.361	7.9898
354.58	-8.93409
354.798	-7.79849
355.017	-3.2903
355.236	31.68026
355.454	19.25763
355.673	82.39794
355.891	0.09396
356.11	20.40814
356.328	41.81443
356.547	-25.85534
356.765	33.9194
356.984	-15.70458
357.202	-17.94835
357.42	4.59977
357.639	-37.1262
357.857	13.63044
358.076	0.09401
358.294	-15.70033
358.512	38.43391
358.731	15.88774
358.949	23.78507
359.167	0.09394
359.386	-7.79519
359.604	-17.94765
359.822	24.906
360.04	54.22515
360.259	14.76676
360.477	46.30693
360.695	28.29219
360.913	-10.05038
361.131	21.51135
361.35	58.76333
361.568	-3.28966
361.786	3.47523
362.004	-7.79909
362.222	39.55927
362.44	13.61418
362.658	-17.94696
362.876	10.24693
363.094	9.11724
363.312	21.51218
363.53	6.85984
363.749	36.18979
363.967	29.41047
364.184	14.75933
364.402	-12.31083
364.62	37.3113
364.838	-1.03365
365.056	-3.28979
365.274	19.26282
365.492	14.74229
365.71	-50.62572
365.928	60.99392
366.146	1.22183
366.364	11.36386
366.581	30.53039
366.799	5.73142
367.017	19.2643
367.235	57.59393
367.453	57.60058
367.67	49.66834
367.888	26.0053
368.106	26.02128
368.323	0.09391
368.541	69.95422
368.759	24.88396
368.977	14.74455
369.194	49.7008
369.412	51.94367
369.629	55.31136
369.847	9.10567
370.065	37.27257
370.282	92.50058
370.5	49.67978
370.717	66.58538
370.935	27.12513
371.152	32.75727
371.37	74.4871
371.588	92.54328
371.805	20.36731
372.022	58.68189
372.24	67.72667
372.457	32.77864
372.675	57.56293
372.892	86.82769
373.11	64.33389
373.327	143.07785
373.544	56.4285
373.762	46.25549
373.979	90.17417
374.196	38.3867
374.414	128.59667
374.631	92.50413
374.848	69.92206
375.066	92.50058
375.283	66.57515
375.5	91.28101
375.717	73.27424
375.935	143.26446
376.152	135.34444
376.369	110.51432
376.586	24.85732
376.803	68.81292
377.02	92.38036
377.238	72.18564
377.455	75.5722
377.672	65.39699
377.889	78.98366
378.106	98.08438
378.323	101.54715
378.54	72.14425
378.757	104.75437
378.974	62.04177
379.191	172.46285
379.408	96.93024
379.625	74.3505
379.842	104.79432
380.059	122.76066
380.276	94.68545
380.493	102.59365
380.71	110.37922
380.927	138.53207
381.143	106.02768
381.36	101.39171
381.577	127.3205
381.794	67.62303
382.011	112.65143
382.228	136.23951
382.444	152.05004
382.661	162.14047
382.878	127.22835
383.095	171.16932
383.311	181.14404
383.528	221.74643
383.745	139.58058
383.962	144.04194
384.178	164.36614
384.395	145.21892
384.612	150.82396
384.828	118.2726
385.045	163.28758
385.261	162.12813
385.478	107.09507
385.695	201.36334
385.911	173.38734
386.128	164.31618
386.344	133.90777
386.561	172.19983
386.777	123.85542
386.994	145.23548
387.21	94.65291
387.427	159.78049
387.643	95.75489
387.86	139.74027
388.076	116.03925
388.292	144.26714
388.509	138.51096
388.725	172.29156
388.942	122.88736
389.158	181.15778
389.374	167.75762
389.591	86.75145
389.807	136.25506
390.023	143.99285
390.239	147.44095
390.456	201.27196
390.672	212.63196
390.888	162.09114
391.104	169.8213
391.321	166.43344
391.537	201.25676
391.753	189.93236
391.969	227.11825
392.185	272.03462
392.401	300.0671
392.618	252.77334
392.834	216.89252
393.05	303.01116
393.266	301.81594
393.482	250.48956
393.698	267.31808
393.914	308.00758
394.13	245.98873
394.346	295.46161
394.562	208.89173
394.778	248.39324
394.994	264.89372
395.21	298.57901
395.426	271.80947
395.642	348.73384
395.858	350.21389
396.073	367.5544
396.289	378.06624
396.505	334.37717
396.721	337.47251
396.937	368.73625
397.153	307.63718
397.369	282.80495
397.584	383.76776
397.8	384.65313
398.016	352.22169
398.232	416.86882
398.447	354.41195
398.663	430.28299
398.879	355.52669
399.094	454.46299
399.31	459.17684
399.526	405.79926
399.741	463.23024
399.957	388.82078
400.173	474.43619
400.388	504.12169
400.604	405.40919
400.82	474.19304
401.035	495.48679
401.251	575.72439
401.466	526.59233
401.682	636.78661
401.897	693.78518
402.113	689.42187
402.328	679.75958
402.544	775.59499
402.759	785.97842
402.974	801.86157
403.19	787.7945
403.405	965.92505
403.621	1003.44989
403.836	1019.59621
404.051	1043.81364
404.267	1170.99618
404.482	1030.73314
404.697	1098.80798
404.913	1146.02746
405.128	1351.541
405.343	1105.86147
405.559	1281.39359
405.774	1292.7586
405.989	1513.04566
406.204	1495.51507
406.42	1444.58433
406.635	1490.12791
406.85	1450.39218
407.065	1490.16975
407.28	1523.65528
407.495	1569.16525
407.71	1522.3765
407.926	1565.01298
408.141	1696.05455
408.356	1687.97577
408.571	1637.94108
408.786	1643.69619
409.001	1672.84416
409.216	1739.59413
409.431	1793.65904
409.646	1660.23216
409.861	1803.99877
410.076	1721.72042
410.291	1781.04411
410.506	1732.10866
410.721	1796.06618
410.936	1829.66794
411.15	1703.02899
411.365	1758.95753
411.58	1867.88915
411.795	1747.27977
412.01	1881.3098
412.225	1884.74558
412.439	1862.95822
412.654	1792.73756
412.869	1897.88038
413.084	1811.11989
413.299	1890.62016
413.513	1707.53507
413.728	1920.7144
413.943	1860.65006
414.157	2044.18159
414.372	1977.71171
414.587	1993.95494
414.801	2185.67896
415.016	2017.76675
415.231	2098.16117
415.445	2055.04644
415.66	2067.50163
415.874	2284.33997
416.089	2086.27674
416.304	2296.56103
416.518	2166.39061
416.733	2212.04689
416.947	2172.31109
417.162	2173.0203
417.376	2160.15621
417.59	2467.47262
417.805	2396.88926
418.019	2307.11658
418.234	2357.22513
418.448	2246.59115
418.663	2305.26278
418.877	2330.85644
419.091	2372.11232
419.306	2242.42976
419.52	2417.08908
419.734	2345.80264
419.949	2492.40403
420.163	2463.04046
420.377	2419.66858
420.591	2459.77191
420.806	2431.95144
421.02	2425.2777
421.234	2562.21713
421.448	2461.80804
421.663	2480.47782
421.877	2477.2321
422.091	2383.56156
422.305	2385.9599
422.519	2352.42867
422.733	2666.05128
422.947	2491.93921
423.161	2511.93241
423.376	2440.60262
423.59	2598.28768
423.804	2499.81626
424.018	2590.08327
424.232	2524.89356
424.446	2703.76859
424.66	2621.40599
424.874	2551.66654
425.088	2468.38103
425.302	2603.68229
425.515	2698.36141
425.729	2736.13388
425.943	2782.98727
426.157	2818.11424
426.371	2676.74888
426.585	2781.05126
426.799	2791.0408
427.013	2933.71166
427.226	3077.4142
427.44	2691.02991
427.654	2751.2299
427.868	2759.91652
428.081	2874.64933
428.295	2762.58454
428.509	2761.29794
428.723	2731.41544
428.936	2814.33304
429.15	2641.12035
429.364	2747.01618
429.577	2558.88466
429.791	2820.37332
430.005	2917.08986
430.218	2749.07766
430.432	2683.28567
430.645	2695.84113
430.859	2618.3847
431.073	2690.00577
431.286	2829.30874
431.5	2954.20187
431.713	2661.54052
431.927	2683.82483
432.14	2814.08814
432.354	2709.43852
432.567	2772.41695
432.781	2807.72548
432.994	2844.36163
433.207	2873.99406
433.421	2923.09134
433.634	3009.7708
433.848	2960.88361
434.061	2841.3032
434.274	2634.14941
434.488	2757.38207
434.701	2691.17344
434.914	2781.5302
435.127	2919.29174
435.341	3064.57667
435.554	2993.34641
435.767	3087.84735
435.98	3158.58851
436.194	2879.63458
436.407	2911.58981
436.62	3220.56021
436.833	3193.69133
437.046	3131.96037
437.259	3052.44574
437.473	3221.68788
437.686	3228.94499
437.899	3193.91011
438.112	3359.97722
438.325	3225.44767
438.538	3274.62147
438.751	3607.06979
438.964	3300.76177
439.177	3351.02966
439.39	3488.87955
439.603	3745.89446
439.816	3506.5064
440.029	3805.01922
440.242	3944.60801
440.455	3981.27221
440.668	3850.70786
440.881	3667.58255
441.094	3673.88738
441.306	3878.27374
441.519	4283.75024
441.732	4225.67926
441.945	4126.66844
442.158	3936.70731
442.37	3868.59369
442.583	4172.89638
442.796	4454.87782
443.009	4362.40648
443.222	4215.81764
443.434	3863.96401
443.647	4465.02768
443.86	4684.85083
444.072	4795.97701
444.285	4449.99646
444.498	4675.46822
444.71	4430.03595
444.923	4629.31496
445.136	4506.02221
445.348	4403.08697
445.561	4396.48807
445.773	4566.32662
445.986	4060.11371
446.198	4660.21224
446.411	4587.31687
446.623	4858.42321
446.836	4789.94387
447.048	4882.92414
447.261	4885.07341
447.473	5081.27441
447.686	4681.16166
447.898	4839.24545
448.11	5112.6811
448.323	5355.01779
448.535	5131.03412
448.748	4863.27459
448.96	4829.98679
449.172	4958.64913
449.385	4687.90511
449.597	5046.21962
449.809	5126.67344
450.021	5256.49199
450.234	5280.70925
450.446	4955.04043
450.658	5018.54602
450.87	5066.60143
451.083	5180.94606
451.295	5291.19102
451.507	5091.38773
451.719	5189.83058
451.931	5301.76936
452.143	5410.87846
452.356	5087.55269
452.568	5292.18791
452.78	5282.06947
452.992	5475.71898
453.204	5485.14815
453.416	5394.636
453.628	5141.5284
453.84	5414.41142
454.052	5274.17199
454.264	5515.68699
454.476	5449.29745
454.688	5799.03153
454.9	5732.49242
455.112	5509.21101
455.324	5330.82257
455.536	5627.46623
455.747	5749.26229
455.959	5620.27581
456.171	5784.80609
456.383	5661.56888
456.595	5503.33569
456.807	5537.2408
457.018	5478.55152
457.23	5751.95176
457.442	5634.88629
457.654	5911.73325
457.865	5723.01563
458.077	5462.94262
458.289	5506.48259
458.501	5691.74619
458.712	5903.24492
458.924	6184.07873
459.136	5824.092
459.347	5802.0907
459.559	5717.54261
459.77	6170.88244
459.982	6192.90854
460.194	6162.06199
460.405	5712.16885
460.617	5839.67171
460.828	6039.39205
461.04	6111.2042
461.251	5946.30067
461.463	6629.35
461.674	6402.60008
461.886	6169.01413
462.097	5878.97554
462.309	6250.81452
462.52	5866.93268
462.731	6506.98169
462.943	6082.05807
463.154	5890.40471
463.366	5988.60057
463.577	6273.42982
463.788	6463.25105
464	6649.11054
464.211	6576.61735
464.422	7132.68928
464.634	6887.3362
464.845	6870.97395
465.056	6845.86665
465.267	6825.55786
465.478	6512.13721
465.69	6825.96779
465.901	6666.61425
466.112	6838.44612
466.323	6940.97717
466.534	7132.96433
466.745	7200.81718
466.957	7091.04626
467.168	7095.59275
467.379	7078.35203
467.59	6838.11731
467.801	6773.28088
468.012	7012.46611
468.223	7166.04972
468.434	6914.48081
468.645	7531.34343
468.856	7595.5923
469.067	7437.41263
469.278	7367.588
469.489	7574.56882
469.7	7183.93187
469.911	7122.17217
470.122	7677.91366
470.333	8124.35527
470.543	7476.95577
470.754	7678.09701
470.965	7798.69727
471.176	7909.10292
471.387	8036.52488
471.598	7873.19664
471.808	7648.18101
472.019	7933.79282
472.23	7870.00575
472.441	7762.36969
472.651	7903.3937
472.862	7957.08893
473.073	8219.52339
473.283	8121.36842
473.494	8035.26296
473.705	8027.09825
473.915	8068.96254
474.126	8542.86857
474.337	8301.93532
474.547	8579.20813
474.758	8669.96623
474.968	8713.27898
475.179	8619.20386
475.389	8640.04428
475.6	8668.29805
475.81	8974.60463
476.021	9077.8328
476.231	9223.03654
476.442	9088.61919
476.652	8895.7188
476.863	8997.78697
477.073	9091.77173
477.284	9153.01296
477.494	9181.39706
477.704	9808.64777
477.915	9958.0856
478.125	9398.03127
478.335	9720.31178
478.546	9890.09007
478.756	9722.65877
478.966	9967.35903
479.177	10047.77863
479.387	10133.40097
479.597	9946.66593
479.807	10051.51875
480.018	9994.39936
480.228	10260.44506
480.438	10382.59484
480.648	10394.18669
480.858	10556.30625
481.068	10200.28276
481.279	10662.92118
481.489	11040.76308
481.699	11192.93714
481.909	10787.74504
482.119	11439.90237
482.329	11524.15802
482.539	11507.88371
482.749	11191.45915
482.959	11498.52131
483.169	11832.56437
483.379	11828.84741
483.589	12049.25624
483.799	11928.13476
484.009	11670.37537
484.219	11912.35271
484.429	12199.84147
484.639	12012.32874
484.849	12268.89316
485.059	12590.88147
485.268	12621.37197
485.478	12760.30398
485.688	12319.20222
485.898	12555.23929
486.108	12826.89282
486.317	12927.93509
486.527	13005.28924
486.737	13372.01305
486.947	13217.52758
487.156	13429.61105
487.366	13152.42335
487.576	12951.80443
487.785	13154.093
487.995	13103.17826
488.205	13342.61809
488.414	13399.77371
488.624	13196.11839
488.834	13385.91925
489.043	13220.58996
489.253	13310.42956
489.462	13417.06426
489.672	13889.07425
489.882	13572.66144
490.091	13752.73717
490.301	13598.41975
490.51	14058.64062
490.72	13898.92667
490.929	14085.08028
491.138	14247.59332
491.348	14123.41077
491.557	14092.0311
491.767	14228.79376
491.976	14050.21205
492.185	14198.81503
492.395	14216.44251
492.604	14514.51581
492.813	14542.56083
493.023	14673.07055
493.232	14469.9702
493.441	14529.49583
493.651	14659.40256
493.86	14548.12538
494.069	14612.18332
494.278	14705.95835
494.488	14799.08039
494.697	14959.95376
494.906	14662.65192
495.115	15085.74163
495.324	14804.18916
495.533	15141.27917
495.743	15220.84273
495.952	15484.82086
496.161	15332.36733
496.37	15488.39591
496.579	15725.65036
496.788	15694.41393
496.997	16039.03306
497.206	15788.50159
497.415	15619.41717
497.624	15835.44998
497.833	15863.41737
498.042	16105.25494
498.251	16228.52929
498.46	16240.13247
498.669	16154.77949
498.878	16224.18148
499.087	16258.66893
499.296	16454.62374
499.504	16348.34966
499.713	16391.55798
499.922	16438.32824
500.131	16486.4424
500.34	16431.95529
500.549	16568.15177
500.757	16362.78006
500.966	16622.19223
501.175	16483.14472
501.384	16847.14682
501.592	16542.74944
501.801	16691.38856
502.01	16509.79191
502.218	16741.4364
502.427	16752.61234
502.636	16729.70088
502.844	16707.47489
503.053	16766.37375
503.262	16507.29701
503.47	16695.13632
503.679	16668.64319
503.887	16834.15372
504.096	16591.3533
504.304	16563.52228
504.513	16668.95327
504.721	16549.16483
504.93	16439.14883
505.138	16646.67326
505.347	16504.96108
505.555	16362.53747
505.764	16484.02497
505.972	16399.5513
506.18	16369.2226
506.389	16369.10052
506.597	16172.14527
506.806	16266.11591
507.014	16357.42216
507.222	16251.63658
507.431	16367.18184
507.639	16168.10819
507.847	16419.22593
508.055	16407.94729
508.264	16270.68519
508.472	16443.60001
508.68	16146.96934
508.888	16286.12724
509.096	16152.29719
509.305	16203.72182
509.513	16045.9772
509.721	16267.79302
509.929	16278.2247
510.137	16259.9883
510.345	16196.10532
510.553	16352.72883
510.762	16047.68132
510.97	16235.14899
511.178	16395.56393
511.386	16416.70879
511.594	16492.16311
511.802	16390.73533
512.01	16188.40177
512.218	16466.71739
512.426	16531.27613
512.634	16575.69905
512.842	16657.59249
513.049	16543.95259
513.257	16626.59988
513.465	16793.9522
513.673	16673.46525
513.881	16784.06482
514.089	16733.08571
514.297	16882.73332
514.504	16705.58773
514.712	16919.11241
514.92	16874.04535
515.128	16942.39106
515.336	16800.5579
515.543	16840.26363
515.751	16978.82073
515.959	16964.42336
516.166	16753.41814
516.374	17052.20682
516.582	17015.29683
516.789	16940.18968
516.997	16897.07201
517.205	16857.32754
517.412	16891.56365
517.62	17090.21229
517.827	17010.48746
518.035	17097.06452
518.243	16886.49342
518.45	16818.74328
518.658	16640.68072
518.865	16548.30496
519.073	16877.59988
519.28	16787.72451
519.488	16632.58256
519.695	16680.96942
519.902	16521.99017
520.11	16580.57874
520.317	16627.63803
520.525	16720.7604
520.732	16314.77043
520.939	16764.57916
521.147	16408.46128
521.354	16658.40805
521.561	16564.55208
521.769	16372.92673
521.976	16336.54476
522.183	16538.06748
522.391	16309.90428
522.598	16510.93032
522.805	16322.85362
523.012	16417.4756
523.219	16284.45121
523.427	16412.19642
523.634	16314.00381
523.841	16413.84814
524.048	16227.90434
524.255	16413.58607
524.462	16353.17249
524.669	16228.47952
524.877	16436.30412
525.084	16378.945
525.291	16502.73174
525.498	16392.03435
525.705	16516.74058
525.912	16624.92057
526.119	16401.28244
526.326	16449.89981
526.533	16340.68652
526.74	16681.34811
526.947	16501.10435
527.153	16595.77117
527.36	16582.41727
527.567	16573.65803
527.774	16365.16506
527.981	16616.92627
528.188	16677.58485
528.395	16758.83093
528.602	16555.41506
528.808	16599.94046
529.015	16479.46252
529.222	16837.14575
529.429	16475.48677
529.635	16727.00454
529.842	16525.32486
530.049	16532.99481
530.256	16361.75035
530.462	16601.2729
530.669	16477.73107
530.876	16545.3139
531.082	16528.75762
531.289	16646.06932
531.495	16503.75464
531.702	16628.8329
531.909	16700.77184
532.115	16743.61297
532.322	16387.85201
532.528	16395.63169
532.735	16480.41115
532.941	16534.87069
533.148	16308.43142
533.354	16297.1632
533.561	16500.14045
533.767	16310.25119
533.974	16413.01968
534.18	16326.50327
534.387	16185.70978
534.593	16241.65019
534.799	16389.58291
535.006	16264.037
535.212	16248.72478
535.418	16501.23553
535.625	16311.59603
535.831	16208.49918
536.037	16232.89534
536.244	16242.48268
536.45	16010.8137
536.656	16097.45239
536.862	16347.19173
537.068	16405.70645
537.275	16373.89651
537.481	16094.46498
537.687	16311.28832
537.893	16410.04542
538.099	16432.21625
538.305	16380.55895
538.512	16216.47236
538.718	16373.35437
538.924	16098.92195
539.13	16130.76746
539.336	16214.21523
539.542	16251.63658
539.748	16342.23826
539.954	16208.85839
540.16	16344.04913
540.366	16282.77638
540.572	16066.14328
540.778	16221.84689
540.984	16173.42889
541.19	16152.60508
541.396	15983.07175
541.602	16069.79088
541.807	16032.13275
542.013	16150.08957
542.219	15869.4414
542.425	15965.08801
542.631	15866.63364
542.837	15863.34595
543.042	15812.67184
543.248	15963.04475
543.454	15682.24653
543.66	15868.96792
543.865	15791.561
544.071	15841.85891
544.277	15631.59633
544.483	15807.63123
544.688	15578.42961
544.894	15731.05887
545.1	15684.13261
545.305	15613.60132
545.511	15657.56205
545.716	15565.20189
545.922	15491.11887
546.128	15446.98203
546.333	15505.98574
546.539	15627.28751
546.744	15666.85179
546.95	15511.89833
547.155	15283.29298
547.361	15363.46839
547.566	15179.17275
547.772	15516.54239
547.977	15377.27457
548.182	15323.40681
548.388	15299.8843
548.593	15268.29731
548.799	15147.32021
549.004	15116.14003
549.209	15143.80604
549.415	15397.9177
549.62	15181.95674
549.825	15145.45813
550.031	14969.50437
550.236	15310.63651
550.441	15260.72987
550.646	15308.04896
550.852	15242.01261
551.057	15078.4423
551.262	15186.81323
551.467	15297.82758
551.672	15115.67222
551.878	15340.63615
552.083	15266.30629
552.288	15192.04284
552.493	15212.34899
552.698	15168.69077
552.903	15070.6801
553.108	15397.65168
553.313	15175.99517
553.518	15277.92907
553.723	15106.90629
553.928	15365.0623
554.133	15193.76941
554.338	15174.66321
554.543	15281.12203
554.748	15107.37012
554.953	15326.23489
555.158	15258.82611
555.363	15103.52499
555.568	15251.519
555.773	15345.57286
555.978	15346.34384
556.182	15373.6318
556.387	15211.56791
556.592	15156.01327
556.797	15315.41523
557.002	15321.85345
557.206	15309.77537
557.411	15272.3511
557.616	15217.19423
557.821	15382.05808
558.025	15271.28598
558.23	15292.78659
558.435	15237.58194
558.64	15096.76093
558.844	15214.07503
559.049	15106.5886
559.253	15126.61326
559.458	15084.54517
559.663	15185.74471
559.867	15011.23012
560.072	14954.90605
560.276	14922.61221
560.481	15019.25678
560.685	14854.88053
560.89	14998.15978
561.094	15026.29103
561.299	14693.252
561.503	14644.48019
561.708	14881.46636
561.912	14792.8149
562.117	14714.97813
562.321	14774.94401
562.525	14656.15161
562.73	14783.56041
562.934	14645.02452
563.139	14545.7493
563.343	14648.99129
563.547	14578.24632
563.752	14520.60754
563.956	14574.1932
564.16	14550.18084
564.364	14562.24953
564.569	14438.49423
564.773	14392.57848
564.977	14477.91076
565.181	14555.81853
565.385	14522.79479
565.59	14476.64967
565.794	14414.41292
565.998	14275.37399
566.202	14238.58505
