Data from mildly cloudy_Subt2__6__14-20-13-168.txt Node

Date: Mon Oct 13 14:20:13 EDT 2025
User: brett
Spectrometer: USB4F03499
Trigger mode: 4
Integration Time (sec): 4.400000E-4
Scans to average: 1
Electric dark correction enabled: true
Nonlinearity correction enabled: true
Boxcar width: 0
XAxis mode: Wavelengths
Number of Pixels in Spectrum: 3648
>>>>>Begin Spectral Data<<<<<
345.386	59.44767
345.605	59.44767
345.824	59.44767
346.044	89.97132
346.263	36.87687
346.482	-38.7231
346.701	-3.76134
346.92	12.03117
347.139	47.00133
347.358	-27.46151
347.577	-47.77368
347.796	9.7829
348.015	63.9503
348.234	5.26384
348.453	-34.23285
348.672	-15.05178
348.891	28.97074
349.11	12.03489
349.329	6.39242
349.548	42.53534
349.767	-0.37621
349.986	8.65058
350.205	-8.26601
350.424	18.82057
350.643	88.75755
350.862	38.01387
351.08	46.98319
351.299	4.13372
351.518	4.13675
351.737	31.23184
351.956	6.39292
352.174	-18.4295
352.393	16.56081
352.612	10.90346
352.831	5.26567
353.049	39.10585
353.268	41.37316
353.487	16.5499
353.705	-3.7609
353.924	-62.44074
354.143	4.13836
354.361	24.45677
354.58	32.32879
354.798	56.09081
355.017	-1.50285
355.236	58.32457
355.454	28.95504
355.673	-12.80098
355.891	-2.63238
356.11	-21.80902
356.328	4.13803
356.547	5.26506
356.765	67.27999
356.984	19.92932
357.202	69.59703
357.42	70.6887
357.639	36.86115
357.857	8.6479
358.076	-8.27655
358.294	-6.01628
358.512	-25.19659
358.731	-55.65712
358.949	-10.52565
359.167	36.83126
359.386	-22.95085
359.604	10.90051
359.822	24.45013
360.04	21.05862
360.259	-8.27111
360.477	51.52741
360.695	-10.52809
360.913	-37.6105
361.131	-28.58177
361.35	-4.89097
361.568	40.24402
361.786	-22.94818
362.004	-1.50349
362.222	72.95037
362.44	-7.14227
362.658	61.69083
362.876	-39.86251
363.094	-29.72784
363.312	35.72652
363.53	33.47788
363.749	-34.21431
363.967	27.80707
364.184	18.80743
364.402	7.52414
364.62	41.36676
364.838	-47.74045
365.056	22.1975
365.274	13.15681
365.492	4.13723
365.71	18.81691
365.928	-25.19465
366.146	39.14072
366.364	-51.13449
366.581	0.75227
366.799	31.19803
367.017	-7.14309
367.235	-33.0934
367.453	-20.68937
367.67	37.97706
367.888	13.16698
368.106	34.603
368.323	-31.97202
368.541	67.29037
368.759	5.26567
368.977	0.75259
369.194	-57.8956
369.412	35.75007
369.629	58.33589
369.847	-9.39953
370.065	-24.09596
370.282	18.80743
370.5	0.75241
370.717	17.66567
370.935	-0.37616
371.152	53.79034
371.37	9.77721
371.588	-1.50366
371.805	19.94787
372.022	3.00791
372.24	63.94534
372.457	-20.68217
372.675	34.58829
372.892	25.59697
373.11	26.71328
373.327	39.10736
373.544	-6.02446
373.762	3.00675
373.979	-44.36668
374.196	52.64862
374.414	74.10284
374.631	5.26567
374.848	75.2153
375.066	23.29692
375.283	3.00919
375.5	-42.14009
375.717	-16.17408
375.935	30.10123
376.152	14.28812
376.369	57.16579
376.586	-17.30418
376.803	-47.75889
377.02	15.42777
377.238	7.52093
377.455	6.40086
377.672	-27.46045
377.889	62.84247
378.106	18.80379
378.323	54.93478
378.54	17.68001
378.757	-1.50378
378.974	6.39614
379.191	17.66499
379.408	7.51977
379.625	26.7195
379.842	7.52501
380.059	34.60166
380.276	62.81811
380.493	22.18461
380.71	14.29365
380.927	24.46437
381.143	3.00907
381.36	45.89549
381.577	-12.78509
381.794	-16.17721
382.011	39.09981
382.228	-1.50372
382.444	-52.23928
382.661	41.37636
382.878	6.39638
383.095	10.90852
383.311	34.62179
383.528	10.90683
383.745	41.36036
383.962	37.9668
384.178	-28.57293
384.395	4.13852
384.612	88.76786
384.828	-39.84097
385.045	-8.27655
385.261	25.55737
385.478	24.47103
385.695	-21.82254
385.911	-8.27207
386.128	-18.42878
386.344	68.52832
386.561	30.11995
386.777	-17.30016
386.994	-2.62994
387.21	-28.57956
387.427	26.69159
387.643	23.33842
387.86	0.75204
388.076	3.00861
388.292	-7.14724
388.509	4.1398
388.725	44.7782
388.942	-3.76529
389.158	74.10284
389.374	4.13691
389.591	-7.14364
389.807	-3.76119
390.023	-39.85327
390.239	-21.79557
390.456	16.54926
390.672	25.56131
390.888	78.53483
391.104	50.36114
391.321	12.02978
391.537	53.79242
391.753	21.05049
391.969	9.77835
392.185	8.65628
392.401	-48.90314
392.618	8.64423
392.834	23.32121
393.05	22.19062
393.266	16.55118
393.482	7.52035
393.698	22.20439
393.914	0.75247
394.13	34.58162
394.346	-35.34567
394.562	-15.04187
394.778	35.7279
394.994	27.84147
395.21	-29.69565
395.426	32.33128
395.642	25.57514
395.858	42.50399
396.073	38.01387
396.289	-62.45284
396.505	-30.85615
396.721	25.57019
396.937	-15.04129
397.153	50.3864
397.369	21.05699
397.584	76.40721
397.8	-0.37595
398.016	39.10132
398.232	6.39465
398.447	-16.15972
398.663	-11.65722
398.879	22.1752
399.094	-21.82847
399.31	-38.73807
399.526	14.28261
399.741	63.89595
399.957	-2.63299
400.173	60.59642
400.388	3.00907
400.604	42.48591
400.82	-4.88965
401.035	21.07331
401.251	34.57629
401.466	57.1393
401.682	44.76257
401.897	-65.83757
402.113	-61.27793
402.328	14.30865
402.544	-28.56742
402.759	19.93549
402.974	24.45013
403.19	30.05708
403.405	1.88049
403.621	56.04077
403.836	-1.50535
404.051	7.52122
404.267	6.39812
404.482	13.16393
404.697	8.6546
404.913	41.37476
405.128	13.16801
405.343	1.88049
405.559	56.02127
405.774	41.35717
405.989	-37.58727
406.204	14.29919
406.42	4.13884
406.635	61.68844
406.85	-0.37578
407.065	17.66635
407.28	34.61238
407.495	31.20887
407.71	0.75224
407.926	14.29475
408.141	28.97749
408.356	17.67933
408.571	16.56081
408.786	23.32573
409.001	-24.07258
409.216	13.15579
409.431	37.99912
409.646	12.03442
409.861	44.76431
410.076	0.75169
410.291	16.54606
410.506	34.60702
410.721	8.64891
410.936	10.90979
411.15	-9.39555
411.365	6.39242
411.58	25.57118
411.795	9.77005
412.01	8.65561
412.225	-15.04071
412.439	12.03163
412.654	3.00768
412.869	42.45972
413.084	19.93163
413.299	49.26882
413.513	65.08009
413.728	23.3122
413.943	13.15782
414.157	0.7525
414.372	30.05592
414.587	21.05292
414.801	34.55767
415.016	10.91614
415.231	30.11175
415.445	67.32418
415.66	13.16189
415.874	-30.8275
416.089	50.37279
416.304	44.81654
416.518	-0.37608
416.733	0.75186
416.947	-17.3082
417.162	-3.76119
417.376	39.08474
417.59	17.67181
417.805	7.52414
418.019	52.64252
418.234	8.65058
418.448	16.53712
418.663	49.26882
418.877	22.15051
419.091	26.68953
419.306	35.7141
419.52	-6.01675
419.734	-15.05587
419.949	-11.646
420.163	16.55054
420.377	-24.07444
420.591	12.02746
420.806	1.88027
421.02	32.36761
421.234	25.56525
421.448	-28.56962
421.663	65.10282
421.877	-9.38905
422.091	32.33628
422.305	-10.53338
422.519	53.77577
422.733	24.46627
422.947	-21.80229
423.161	14.2815
423.376	43.62144
423.59	9.7693
423.804	40.23157
424.018	23.3122
424.232	9.76967
424.446	10.89925
424.66	33.44429
424.874	42.48263
425.088	-6.02399
425.302	-38.70967
425.515	45.86178
425.729	4.1334
425.943	76.34501
426.157	12.03722
426.371	-12.78411
426.585	-11.65182
426.799	35.67429
427.013	25.56822
427.226	13.15528
427.44	-40.96776
427.654	8.64924
427.868	17.65548
428.081	16.54094
428.295	31.20164
428.509	40.25181
428.723	34.58028
428.936	-33.03996
429.15	51.50551
429.364	4.13755
429.577	61.66697
429.791	-13.89899
430.005	22.17776
430.218	14.2942
430.432	43.59452
430.645	-2.63207
430.859	37.97706
431.073	-15.04303
431.286	45.89016
431.5	27.81565
431.713	5.261
431.927	22.17691
432.14	-0.37621
432.354	58.239
432.567	42.49577
432.781	26.70293
432.994	43.64171
433.207	-17.2888
433.421	-22.92602
433.634	52.67105
433.848	33.43657
434.061	1.88209
434.274	27.81136
434.488	6.39391
434.701	37.94196
434.914	44.74699
435.127	24.45582
435.341	43.63664
435.554	42.48427
435.767	57.2057
435.98	22.17691
436.194	-4.8855
436.407	44.77298
436.62	42.49412
436.833	46.99951
437.046	68.4221
437.259	52.63438
437.473	31.20405
437.686	52.65473
437.899	50.37862
438.112	-0.37588
438.325	40.21761
438.538	35.70722
438.751	54.86898
438.964	-89.32412
439.177	45.82826
439.39	28.94052
439.603	54.95612
439.816	72.89694
440.029	40.23313
440.242	28.9394
440.455	19.92086
440.668	67.28777
440.881	87.65133
441.094	47.01587
441.306	80.85178
441.519	42.49412
441.732	30.07909
441.945	85.3315
442.158	48.13215
442.37	88.70957
442.583	33.47399
442.796	60.52839
443.009	36.84547
443.222	65.04235
443.434	33.4727
443.647	3.00861
443.86	57.11948
444.072	63.89103
444.285	61.65982
444.498	58.25918
444.71	49.27455
444.923	81.9657
445.136	25.56525
445.348	49.24599
445.561	22.17093
445.773	106.84731
445.986	21.07085
446.198	25.55245
446.411	48.12657
446.623	5.26282
446.836	52.60599
447.048	48.11914
447.261	71.7987
447.473	26.67514
447.686	23.28797
447.898	0.75177
448.11	49.27264
448.323	-4.87652
448.535	45.8353
448.748	-16.16221
448.96	27.82101
449.172	137.15473
449.385	-6.01466
449.597	31.22942
449.809	83.03764
450.021	34.59631
450.234	96.59396
450.446	43.57106
450.658	61.61944
450.87	55.97597
451.083	67.25926
451.295	54.83735
451.507	73.97732
451.719	65.0524
451.931	71.80978
452.143	42.48591
452.356	79.64528
452.568	67.29556
452.78	13.15073
452.992	8.64124
453.204	61.61944
453.416	92.17988
453.628	71.84311
453.84	17.65751
454.052	85.29206
454.264	78.51973
454.476	36.81851
454.688	78.51369
454.9	98.85671
455.112	86.33151
455.324	80.82056
455.536	89.85978
455.747	32.32879
455.959	66.05473
456.171	-1.50256
456.383	98.85671
456.595	103.33149
456.807	69.48439
457.018	78.51369
457.23	39.0983
457.442	55.9932
457.654	43.61302
457.865	98.7769
458.077	32.3238
458.289	23.29782
458.501	72.88292
458.712	119.05826
458.924	98.82245
459.136	-3.75583
459.347	71.83477
459.559	48.10801
459.77	78.50766
459.982	63.92061
460.194	43.59452
460.405	23.28797
460.617	28.93383
460.828	100.99553
461.04	26.68233
461.251	4.13293
461.463	21.03106
461.674	96.57164
461.886	59.3218
462.097	60.50273
462.309	49.16852
462.52	48.11172
462.731	71.77657
462.943	102.23769
463.154	99.92089
463.366	44.66794
463.577	93.12713
463.788	13.14467
464	75.09956
464.211	92.03412
464.422	101.05365
464.634	107.87376
464.845	70.6044
465.056	120.33089
465.267	42.42713
465.478	93.18077
465.69	87.50951
465.901	97.64454
466.112	117.96096
466.323	141.60954
466.534	137.11782
466.745	53.66432
466.957	125.86224
467.168	87.50615
467.379	79.67286
467.59	102.15124
467.801	32.29771
468.012	50.30317
468.223	107.82395
468.434	89.79401
468.645	143.88541
468.856	71.68852
469.067	68.38783
469.278	134.69871
469.489	113.43542
469.7	67.21537
469.911	125.75129
470.122	113.4703
470.333	141.58238
470.543	137.18114
470.754	106.60486
470.965	140.42073
471.176	170.91517
471.387	137.08097
471.598	129.06318
471.808	133.65731
472.019	147.07786
472.23	100.96849
472.441	150.41172
472.651	143.85226
472.862	141.65309
473.073	93.09148
473.283	125.7561
473.494	96.46798
473.705	241.53895
473.915	124.6323
474.126	111.09659
474.337	74.00571
474.547	167.28159
474.758	188.57155
474.968	136.84062
475.179	178.50002
475.389	136.81986
475.6	96.35414
475.81	156.02334
476.021	181.87855
476.231	193.17313
476.442	148.20064
476.652	193.20992
476.863	109.94751
477.073	159.32324
477.284	101.99538
477.494	154.83637
477.704	124.54195
477.915	236.92103
478.125	175.28185
478.335	213.28291
478.546	234.5119
478.756	239.03459
478.966	157.09181
479.177	245.86249
479.387	171.67819
479.597	206.44965
479.807	178.42551
480.018	251.48935
480.228	249.14619
480.438	271.54461
480.648	278.51837
480.858	199.42728
481.068	204.30202
481.279	251.31831
481.489	264.72268
481.699	262.48587
481.909	214.57452
482.119	331.99994
482.329	255.67821
482.539	288.16686
482.749	315.13773
482.959	291.37692
483.169	224.15625
483.379	338.4208
483.589	321.74238
483.799	263.65395
484.009	309.79723
484.219	289.3168
484.429	327.40977
484.639	394.8284
484.849	369.83503
485.059	373.12429
485.268	321.40632
485.478	421.77719
485.688	306.05128
485.898	384.37023
486.108	333.01669
486.317	401.05556
486.527	353.75902
486.737	379.6003
486.947	378.55668
487.156	452.18931
487.366	306.83568
487.576	333.78374
487.785	302.38435
487.995	362.64453
488.205	402.22942
488.414	473.83642
488.624	361.03493
488.834	444.6682
489.043	406.64004
489.253	412.63479
489.462	391.99663
489.672	450.18206
489.882	405.49603
490.091	506.6862
490.301	449.4876
490.51	517.21044
490.72	383.16984
490.929	440.48225
491.138	412.11668
491.348	472.30357
491.557	460.26201
491.767	469.88953
491.976	469.71648
492.185	413.0768
492.395	399.52626
492.604	489.47105
492.813	390.83915
493.023	474.4214
493.232	373.01311
493.441	416.19996
493.651	425.47432
493.86	482.50193
494.069	479.90622
494.278	523.48892
494.488	467.87445
494.697	509.77313
494.906	446.23341
495.115	506.85425
495.324	526.56698
495.533	502.18961
495.743	492.74557
495.952	552.2329
496.161	512.29329
496.37	535.65648
496.579	586.67132
496.788	548.98706
496.997	589.12379
497.206	543.38168
497.415	490.15537
497.624	586.54273
497.833	507.92733
498.042	587.71458
498.251	507.20099
498.46	545.57976
498.669	589.56422
498.878	579.13823
499.087	533.39834
499.296	594.12096
499.504	497.18269
499.713	620.36122
499.922	547.91827
500.131	641.10442
500.34	567.29581
500.549	613.83881
500.757	613.37975
500.966	646.9509
501.175	607.07009
501.384	641.21994
501.592	537.70908
501.801	629.79747
502.01	597.74654
502.218	639.82119
502.427	619.39005
502.636	581.47727
502.844	596.39986
503.053	628.73705
503.262	576.2794
503.47	569.78043
503.679	597.1377
503.887	679.88185
504.096	529.79766
504.304	617.92037
504.513	542.193
504.721	644.47913
504.93	573.85587
505.138	604.08168
505.347	581.00483
505.555	609.83599
505.764	595.48831
505.972	587.13706
506.18	526.06651
506.389	652.12643
506.597	490.2404
506.806	635.79104
507.014	566.43621
507.222	646.40917
507.431	580.89879
507.639	627.63075
507.847	584.58416
508.055	641.42826
508.264	552.25315
508.472	571.97505
508.68	530.03092
508.888	620.49602
509.096	578.78941
509.305	602.8217
509.513	531.7822
509.721	516.2598
509.929	552.07114
510.137	549.87431
510.345	589.67151
510.553	606.25068
510.762	576.95406
510.97	555.17316
511.178	555.77553
511.386	640.13845
511.594	548.82604
511.802	623.94869
512.01	587.58587
512.218	731.20197
512.426	535.18562
512.634	673.20225
512.842	621.08273
513.049	600.08707
513.257	594.51128
513.465	639.07991
513.673	566.08541
513.881	617.49253
514.089	614.05436
514.297	564.59225
514.504	641.51173
514.712	627.19778
514.92	560.85543
515.128	667.67602
515.336	583.00741
515.543	607.20273
515.751	523.8689
515.959	538.31457
516.166	585.49938
516.374	622.84284
516.582	540.88585
516.789	526.14328
516.997	511.5431
517.205	568.21717
517.412	553.4228
517.62	555.57932
517.827	565.82544
518.035	538.41271
518.243	497.63847
518.45	516.46783
518.658	515.35837
518.865	518.23172
519.073	529.64258
519.28	530.75127
519.488	479.13146
519.695	553.30108
519.902	548.54509
520.11	541.54186
520.317	555.64044
520.525	535.61713
520.732	481.07025
520.939	505.27886
521.147	468.74377
521.354	522.03365
521.561	478.84829
521.769	551.24547
521.976	446.34847
522.183	564.11744
522.391	485.13904
522.598	503.68983
522.805	471.33153
523.012	528.88257
523.219	472.05961
523.427	493.9814
523.634	377.31633
523.841	510.2422
524.048	410.97277
524.255	473.41507
524.462	401.6481
524.669	433.03932
524.877	462.58975
525.084	456.6201
525.291	500.63823
525.498	520.21643
525.705	493.3246
525.912	466.40112
526.119	415.48748
526.326	476.43307
526.533	470.02831
526.74	583.07115
526.947	461.66848
527.153	447.75759
527.36	491.10333
527.567	484.18901
527.774	469.17726
527.981	585.69215
528.188	502.0235
528.395	524.21371
528.602	468.62292
528.808	519.83407
529.015	416.74526
529.222	515.37728
529.429	345.72801
529.635	537.67794
529.842	479.72962
530.049	571.99593
530.256	501.3195
530.462	534.70437
530.669	513.57368
530.876	527.85069
531.082	580.64221
531.289	473.89831
531.495	493.21564
531.702	521.17307
531.909	503.33688
532.115	469.94154
532.322	405.43573
532.528	528.39871
532.735	523.18127
532.941	564.61296
533.148	529.75886
533.354	574.88479
533.561	506.09908
533.767	515.16962
533.974	473.06607
534.18	546.60855
534.387	504.59584
534.593	489.97459
534.799	443.14456
535.006	563.23596
535.212	450.62839
535.418	550.88208
535.625	488.33091
535.831	563.50427
536.037	439.6624
536.244	482.8659
536.45	478.65433
536.656	523.46965
536.862	513.46011
537.068	511.3716
537.275	493.08875
537.481	521.78531
537.687	503.11491
537.893	624.20992
538.099	486.3382
538.305	526.33555
538.512	438.29241
538.718	586.2862
538.924	498.63871
539.13	516.85982
539.336	494.67236
539.542	534.23339
539.748	540.80674
539.954	507.5725
540.16	514.28662
540.366	544.13199
540.572	495.47274
540.778	535.36183
540.984	473.93305
541.19	629.4726
541.396	510.92018
541.602	588.28629
541.807	539.52118
542.013	604.78784
542.219	594.64182
542.425	558.55782
542.631	551.84928
542.837	546.28878
543.042	561.77895
543.248	618.85331
543.454	550.60069
543.66	612.09404
543.865	530.79008
544.071	646.3857
544.277	522.14856
544.483	620.6761
544.688	579.60111
544.894	661.86044
545.1	672.86064
545.305	738.07574
545.511	726.708
545.716	707.11191
545.922	630.05885
546.128	721.32473
546.333	820.06709
546.539	854.65702
546.744	838.0239
546.95	921.96099
547.155	898.89381
547.361	968.28785
547.566	935.0086
547.772	1074.60018
547.977	1085.85519
548.182	1190.8411
548.388	1176.21549
548.593	1319.71805
548.799	1330.66864
549.004	1511.32589
549.209	1617.75134
549.415	1733.1964
549.62	1770.24184
549.825	1819.88014
550.031	1934.95062
550.236	2125.44937
550.441	2276.91381
550.646	2483.80223
550.852	2695.58169
551.057	2817.09111
551.262	2952.98225
551.467	3134.01729
551.672	3276.63116
551.878	3580.23639
552.083	3771.97444
552.288	4136.16109
552.493	4346.048
552.698	4594.14271
552.903	4973.63243
553.108	5384.16174
553.313	5610.85791
553.518	6064.72284
553.723	6376.17982
553.928	6812.18155
554.133	7162.54096
554.338	7635.23593
554.543	7989.74641
554.748	8478.85353
554.953	8930.35703
555.158	9459.38959
555.363	9848.34424
555.568	10293.02093
555.773	10776.77201
555.978	11309.25957
556.182	11605.0382
556.387	12093.96441
556.592	12479.89193
556.797	13031.23852
557.002	13435.23863
557.206	13682.58769
557.411	14117.82746
557.616	14598.59424
557.821	15217.53439
558.025	15438.48489
558.23	15790.56422
558.435	16173.95253
558.64	16597.8294
558.844	17028.29686
559.049	17241.84701
559.253	17747.8982
559.458	17881.62891
559.663	18180.2031
559.867	18454.55023
560.072	18682.68051
560.276	18835.72008
560.481	19338.53091
560.685	19472.15749
560.89	19563.57493
561.094	19916.84355
561.299	20056.33513
561.503	20286.1051
561.708	20537.86978
561.912	20732.91552
562.117	20540.6181
562.321	20821.24171
562.525	20985.17171
562.73	21172.24958
562.934	21222.35566
563.139	21272.71629
563.343	21403.17908
563.547	21255.69786
563.752	21524.97256
563.956	21432.00417
564.16	21764.93628
564.364	21419.57288
564.569	21630.10563
564.773	21583.14763
564.977	21487.47365
565.181	21694.3166
565.385	21639.88002
565.59	21750.04348
565.794	21625.21259
565.998	21480.97741
566.202	21734.02195
566.406	21787.30302
566.61	21554.15254
566.814	21569.28174
567.018	21554.17215
567.222	21542.01017
567.426	21360.7622
567.63	21505.11182
567.834	21637.22326
568.038	21627.9276
568.242	21480.41064
568.446	21558.26789
568.65	21656.01253
568.854	21464.2427
569.058	21529.99529
569.262	21518.85434
569.466	21536.48388
569.67	21502.04576
569.874	21226.99342
570.078	21433.92161
570.281	21177.2117
570.485	21250.22844
570.689	21397.80527
570.893	21217.14591
571.097	21266.17925
571.3	20929.73811
571.504	21039.96751
571.708	21039.47833
571.912	21074.17802
572.115	20818.15442
572.319	20710.09588
572.523	20902.99459
572.726	20922.55143
572.93	20683.28193
573.133	20904.91583
573.337	20606.53675
573.541	20539.54339
573.744	20487.91894
573.948	20600.11927
574.151	20575.03758
574.355	20540.10724
574.558	20395.48098
574.762	20560.79184
574.965	20341.55594
575.169	20387.62657
575.372	20353.90325
575.576	20476.04008
575.779	20362.54509
575.983	20524.76825
576.186	20274.3949
576.389	20516.9368
576.593	20229.14291
576.796	20416.98054
577	20267.20706
577.203	20162.70715
577.406	20167.63098
577.609	20270.16132
577.813	20152.4476
578.016	20226.95003
578.219	20344.73867
578.423	20180.25079
578.626	20070.46807
578.829	20105.22279
579.032	19996.86446
579.235	20208.51905
579.438	20276.18801
579.642	20043.71687
579.845	19905.32649
580.048	20021.61187
580.251	19956.83614
580.454	20262.8125
580.657	19954.05009
580.86	20215.29296
581.063	19616.23071
581.266	20031.42934
