Data from 4_51 _Subt2__1__16-51-23-367.txt Node

Date: Tue Oct 07 16:51:23 EDT 2025
User: brett
Spectrometer: USB4F03499
Trigger mode: 4
Integration Time (sec): 2.970000E-3
Scans to average: 5
Electric dark correction enabled: true
Nonlinearity correction enabled: true
Boxcar width: 0
XAxis mode: Wavelengths
Number of Pixels in Spectrum: 3648
>>>>>Begin Spectral Data<<<<<
345.386	-11.41372
345.605	-11.41372
345.824	-11.41372
346.044	-13.84963
346.263	-26.06445
346.482	1.3037
346.701	-91.96744
346.92	44.84906
347.139	-40.2434
347.358	-18.24878
347.577	43.38237
347.796	65.46887
348.015	-1.14088
348.234	1.79273
348.453	-26.06881
348.672	-7.00429
348.891	28.21033
349.11	55.14636
349.329	-17.27811
349.548	-9.95521
349.767	-11.40893
349.986	-37.32444
350.205	-64.2042
350.424	-36.34895
350.643	-93.10907
350.862	-27.5451
351.08	-33.87983
351.299	-32.42119
351.518	-10.91531
351.737	-59.22658
351.956	-59.27094
352.174	-25.08033
352.393	-42.16475
352.612	-70.50229
352.831	-66.0956
353.049	-97.29133
353.268	-58.79176
353.487	-53.39029
353.705	-24.12295
353.924	-125.56714
354.143	-36.82282
354.361	-48.99984
354.58	27.23698
354.798	50.67256
355.017	-11.88803
355.236	18.92021
355.454	-78.40696
355.673	82.54536
355.891	15.47641
356.11	34.5574
356.328	-93.03099
356.547	-25.08033
356.765	-18.73304
356.984	-31.45895
357.202	6.68254
357.42	15.492
357.639	80.57688
357.857	-12.88152
358.076	-92.94564
358.294	-49.49274
358.512	-69.46642
358.731	42.4081
358.949	-76.37158
359.167	-27.05364
359.386	29.67966
359.604	-61.25255
359.822	-40.23331
360.04	4.72882
360.259	6.68478
360.477	50.73219
360.695	-6.02937
360.913	16.47988
361.131	-88.04766
361.35	-36.77985
361.568	11.57609
361.786	-58.3613
362.004	-28.49016
362.222	-18.74717
362.44	69.83035
362.658	1.30348
362.876	-8.47052
363.094	18.40325
363.312	-22.64217
363.53	-56.36537
363.749	-37.28701
363.967	24.76454
364.184	28.15612
364.402	78.11376
364.62	-22.13484
364.838	14.9778
365.056	-15.80541
365.274	-8.96981
365.492	19.38819
365.71	32.1434
365.928	-8.47691
366.146	7.16784
366.364	-38.77932
366.581	-13.84732
366.799	-47.57322
367.017	-16.29437
367.235	-60.30439
367.453	44.33037
367.67	-21.66807
367.888	20.37394
368.106	-89.97376
368.323	-6.02333
368.541	-93.46589
368.759	86.00238
368.977	4.23789
369.194	-57.77034
369.412	15.00164
369.629	6.6831
369.847	-33.86852
370.065	-11.40701
370.282	-89.00346
370.5	55.13706
370.717	-10.92355
370.935	17.44536
371.152	-88.54401
371.37	-27.53587
371.588	-61.24231
371.805	130.10878
372.022	-15.79484
372.24	10.10471
372.457	63.3942
372.675	-13.35401
372.892	-24.09875
373.11	13.05525
373.327	-17.76131
373.544	-11.4051
373.762	-16.79602
373.979	16.47849
374.196	-23.11369
374.414	10.1064
374.631	-3.09601
374.848	-7.4924
375.066	-51.9891
375.283	-14.82254
375.5	-27.53357
375.717	-19.22993
375.935	-43.09929
376.152	3.25751
376.369	34.04869
376.586	-26.0601
376.803	-14.32779
377.02	-45.60519
377.238	-21.16323
377.455	59.537
377.672	3.26051
377.889	13.04754
378.106	-104.53906
378.323	-32.41035
378.54	-17.75092
378.757	-34.35443
378.974	-20.68157
379.191	-93.44253
379.408	-27.02653
379.625	-72.91732
379.842	-20.2013
380.059	9.12852
380.276	-20.16938
380.493	-69.55321
380.71	-66.06812
380.927	-31.44314
381.143	-81.72554
381.36	39.91287
381.577	-41.69686
381.794	47.77017
382.011	-53.44826
382.228	-5.54231
382.444	-66.62344
382.661	-0.65215
382.878	-8.96303
383.095	16.95638
383.311	-30.94378
383.528	-36.34285
383.745	-39.74764
383.962	78.1863
384.178	60.44358
384.395	-128.06534
384.612	19.38009
384.828	-73.94441
385.045	-32.92401
385.261	68.27751
385.478	-2.11917
385.695	17.91781
385.911	-22.61203
386.128	-52.44335
386.344	-36.33068
386.561	75.24564
386.777	-32.8773
386.994	55.60724
387.21	-27.5428
387.427	-31.91882
387.643	-34.34014
387.86	29.68716
388.076	84.54294
388.292	64.93021
388.509	-80.79456
388.725	-23.62585
388.942	-39.22589
389.158	-20.67985
389.374	-63.59288
389.591	-6.51775
389.807	16.46186
390.023	-10.91531
390.239	-43.16385
390.456	28.68002
390.672	-24.06874
390.888	53.63415
391.104	-20.70062
391.321	101.55598
391.537	32.58875
391.753	-25.58623
391.969	-23.13684
392.185	69.77745
392.401	-25.07824
392.618	32.14068
392.834	27.20045
393.05	52.6569
393.266	22.33471
393.482	28.66084
393.698	-82.18044
393.914	7.16904
394.13	-88.05498
394.346	-63.61397
394.562	-23.614
394.778	16.47849
394.994	-9.93516
395.21	-59.21185
395.426	-1.14069
395.642	-1.62916
395.858	33.08007
396.073	-35.83863
396.289	-66.02978
396.505	-17.25934
396.721	8.14514
396.937	-4.56227
397.153	-44.17146
397.369	14.98656
397.584	-25.07196
397.8	-14.33377
398.016	-84.17105
398.232	-6.02635
398.447	13.99424
398.663	59.0382
398.879	32.0975
399.094	-34.36877
399.31	-2.11775
399.526	-19.69104
399.741	-13.34734
399.957	15.96768
400.173	-62.69932
400.388	15.46222
400.604	19.36396
400.82	78.57591
401.035	79.04441
401.251	40.43855
401.466	68.79464
401.682	23.28713
401.897	28.68242
402.113	53.60269
402.328	4.23682
402.544	36.50919
402.759	54.11822
402.974	35.50511
403.19	-2.60562
403.405	-76.75865
403.621	79.53935
403.836	33.07177
404.051	-14.81266
404.267	25.71805
404.482	53.61166
404.697	38.40281
404.913	5.69756
405.128	-5.04188
405.343	67.35179
405.559	12.54048
405.774	-14.31114
405.989	13.03549
406.204	-58.71849
406.42	-21.165
406.635	47.21032
406.85	100.52902
407.065	0.81292
407.28	62.31343
407.495	14.96785
407.71	-9.92195
407.926	45.23572
408.141	42.29135
408.356	2.27445
408.571	17.40177
408.786	63.80793
409.001	45.26584
409.216	-44.03222
409.431	113.2511
409.646	38.34256
409.861	22.26973
410.076	90.24236
410.291	88.66038
410.506	104.31928
410.721	88.18038
410.936	40.33409
411.15	62.27732
411.365	129.122
411.58	147.34816
411.795	129.02612
412.01	110.70966
412.225	85.1645
412.439	59.31421
412.654	107.09265
412.869	141.4067
413.084	103.78022
413.299	94.53884
413.513	157.89482
413.728	133.02718
413.943	225.74465
414.157	174.54788
414.372	146.02295
414.587	121.72852
414.801	191.98037
415.016	163.80042
415.231	115.30761
415.445	195.19016
415.66	154.79676
415.874	190.10086
416.089	140.06298
416.304	181.98724
416.518	175.98754
416.733	183.82425
416.947	194.73653
417.162	221.49056
417.376	183.79429
417.59	323.9044
417.805	218.63213
418.019	213.34073
418.234	236.82439
418.448	242.23471
418.663	264.98144
418.877	206.13751
419.091	299.80059
419.306	269.72356
419.52	186.64444
419.734	309.6924
419.949	281.34021
420.163	303.49524
420.377	275.46553
420.591	356.77727
420.806	352.799
421.02	347.93017
421.234	255.97862
421.448	343.80534
421.663	343.95439
421.877	171.19134
422.091	247.48628
422.305	321.97595
422.519	308.62836
422.733	406.43377
422.947	241.2219
423.161	297.47796
423.376	272.25447
423.59	329.43111
423.804	341.31749
424.018	435.79487
424.232	374.68938
424.446	393.59966
424.66	425.48764
424.874	383.31343
425.088	339.33067
425.302	460.54669
425.515	398.10097
425.729	400.80491
425.943	355.86207
426.157	432.78788
426.371	433.48025
426.585	417.47769
426.799	366.95019
427.013	519.59025
427.226	412.58362
427.44	403.69643
427.654	415.68324
427.868	416.9959
428.081	514.83512
428.295	414.81886
428.509	418.70889
428.723	520.67613
428.936	414.09283
429.15	403.59948
429.364	450.02787
429.577	331.97816
429.791	301.92319
430.005	502.35689
430.218	372.64565
430.432	345.00182
430.645	406.97409
430.859	457.21446
431.073	424.14712
431.286	449.08155
431.5	462.84248
431.713	414.23731
431.927	413.02287
432.14	457.80546
432.354	389.24178
432.567	450.53289
432.781	488.37668
432.994	485.47403
433.207	367.10066
433.421	518.62863
433.634	535.32524
433.848	583.74991
434.061	461.36355
434.274	396.72221
434.488	420.16753
434.701	453.16034
434.914	464.7692
435.127	561.14558
435.341	502.2789
435.554	499.28451
435.767	626.81399
435.98	627.73672
436.194	438.45596
436.407	496.79509
436.62	699.96338
436.833	665.14487
437.046	698.29698
437.259	546.77311
437.473	665.95374
437.686	668.41749
437.899	616.70527
438.112	721.26405
438.325	603.00384
438.538	640.80211
438.751	821.19119
438.964	713.46895
439.177	729.43657
439.39	762.20821
439.603	869.39754
439.816	801.3383
440.029	942.90501
440.242	1162.33448
440.455	1175.67128
440.668	1074.15902
440.881	796.01643
441.094	881.83516
441.306	958.69059
441.519	1269.85412
441.732	1121.12899
441.945	1324.77637
442.158	995.64238
442.37	1058.47217
442.583	1166.40007
442.796	1315.75147
443.009	1284.87913
443.222	1175.73169
443.434	988.50811
443.647	1435.56906
443.86	1411.4917
444.072	1668.86384
444.285	1307.97563
444.498	1605.59524
444.71	1293.05494
444.923	1515.69459
445.136	1327.32753
445.348	1341.85628
445.561	1406.71249
445.773	1505.52278
445.986	1063.04034
446.198	1659.54987
446.411	1487.12295
446.623	1691.40102
446.836	1519.14736
447.048	1729.86973
447.261	1728.61208
447.473	1948.50912
447.686	1472.61497
447.898	1694.43249
448.11	1897.98933
448.323	2120.18636
448.535	1777.17499
448.748	1795.22376
448.96	1641.99116
449.172	1901.49175
449.385	1433.89648
449.597	2021.42232
449.809	1768.67687
450.021	2120.11802
450.234	1921.15665
450.446	1841.50015
450.658	1750.34646
450.87	1970.77899
451.083	1846.25774
451.295	2183.8462
451.507	1891.17387
451.719	1990.31211
451.931	2022.9051
452.143	2267.11049
452.356	1969.03866
452.568	2148.07497
452.78	2038.60632
452.992	2335.17896
453.204	2120.77783
453.416	2288.08572
453.628	1878.9478
453.84	2108.81566
454.052	1954.09198
454.264	2439.27537
454.476	2105.12478
454.688	2611.61414
454.9	2330.29773
455.112	2260.25489
455.324	2094.56023
455.536	2450.72804
455.747	2380.95816
455.959	2547.39377
456.171	2382.18395
456.383	2403.99389
456.595	2093.83048
456.807	2373.35788
457.018	2179.33064
457.23	2558.15061
457.442	2174.37021
457.654	2565.43073
457.865	2278.86593
458.077	2323.71704
458.289	2143.61784
458.501	2463.53237
458.712	2568.87435
458.924	2870.76158
459.136	2300.08105
459.347	2463.41716
459.559	2356.70938
459.77	2791.22655
459.982	2712.1491
460.194	2767.97427
460.405	2337.47024
460.617	2591.7272
460.828	2604.84069
461.04	2846.22567
461.251	2458.20455
461.463	3074.25717
461.674	2805.51483
461.886	2857.5674
462.097	2526.01562
462.309	2989.48157
462.52	2501.43378
462.731	3260.31856
462.943	2524.65369
463.154	2779.17071
463.366	2548.70986
463.577	2947.90271
463.788	2995.33154
464	3233.98925
464.211	3060.32573
464.422	3652.6599
464.634	3281.29161
464.845	3410.51923
465.056	3279.41142
465.267	3540.73377
465.478	2930.24577
465.69	3491.40809
465.901	3123.55657
466.112	3576.54806
466.323	3311.28279
466.534	3699.9657
466.745	3565.49322
466.957	3664.00928
467.168	3547.20078
467.379	3592.63567
467.59	3298.56568
467.801	3396.8921
468.012	3422.16451
468.223	3642.71474
468.434	3401.71378
468.645	4001.81115
468.856	4012.53298
469.067	3910.06248
469.278	3704.55067
469.489	3983.62538
469.7	3646.89281
469.911	3793.26243
470.122	4060.36168
470.333	4462.29068
470.543	3718.03713
470.754	4232.39191
470.965	4024.97094
471.176	4308.92739
471.387	4335.40001
471.598	4337.43947
471.808	3950.91812
472.019	4361.30559
472.23	4207.35982
472.441	4284.66599
472.651	4255.87773
472.862	4424.04887
473.073	4549.60327
473.283	4509.62287
473.494	4221.79382
473.705	4516.53774
473.915	4431.3764
474.126	4885.30001
474.337	4592.09504
474.547	5038.69649
474.758	4755.08047
474.968	5114.12986
475.179	4805.49543
475.389	4956.41527
475.6	4903.12695
475.81	5232.33118
476.021	5198.62605
476.231	5520.56546
476.442	5154.43152
476.652	5325.5047
476.863	5065.8547
477.073	5247.008
477.284	5310.00816
477.494	5534.97734
477.704	5626.39233
477.915	6161.33142
478.125	5475.50794
478.335	5904.99062
478.546	5980.93514
478.756	5991.9012
478.966	6026.57219
479.177	6206.32294
479.387	6151.92381
479.597	6450.3369
479.807	6183.77358
480.018	6296.12267
480.228	6220.2038
480.438	6555.72646
480.648	6536.31657
480.858	6826.16834
481.068	6331.10372
481.279	6754.38182
481.489	7066.63683
481.699	7065.12939
481.909	6726.45876
482.119	7674.7383
482.329	7500.72765
482.539	7658.69123
482.749	7155.47797
482.959	7627.30915
483.169	7643.34581
483.379	7914.25236
483.589	7947.89216
483.799	7956.16656
484.009	7661.99637
484.219	8054.85964
484.429	8074.41739
484.639	8073.1475
484.849	8072.86394
485.059	8512.10909
485.268	8520.73379
485.478	8672.1429
485.688	8162.15361
485.898	8489.73326
486.108	8365.34033
486.317	8862.76266
486.527	8610.5634
486.737	9174.26685
486.947	8879.77406
487.156	9375.64093
487.366	8914.00814
487.576	8877.08448
487.785	8806.48048
487.995	8910.88643
488.205	9014.94808
488.414	9246.37636
488.624	9076.33753
488.834	9184.77313
489.043	8910.85354
489.253	9103.38573
489.462	9137.72544
489.672	9604.33534
489.882	9493.23649
490.091	9678.75528
490.301	9292.12095
490.51	9688.07716
490.72	9500.2436
490.929	9915.29937
491.138	9755.82855
491.348	9753.52407
491.557	9598.21152
491.767	10048.98706
491.976	9711.72737
492.185	9909.76191
492.395	9816.19333
492.604	10147.85619
492.813	9714.04728
493.023	10448.40902
493.232	10041.81162
493.441	10107.1871
493.651	10108.61332
493.86	10145.32999
494.069	10199.21106
494.278	10361.10023
494.488	10327.43863
494.697	10498.70569
494.906	10184.7067
495.115	10790.28573
495.324	10347.26034
495.533	10959.24821
495.743	10668.81688
495.952	11139.41748
496.161	10907.72343
496.37	11177.99585
496.579	11024.18045
496.788	11431.72429
496.997	11280.3379
497.206	11267.82107
497.415	11118.27402
497.624	11466.1316
497.833	11380.36315
498.042	11622.79003
498.251	11418.7186
498.46	11891.57799
498.669	11632.7404
498.878	11705.2405
499.087	11515.40571
499.296	11973.45873
499.504	11808.30517
499.713	11882.48949
499.922	11859.49475
500.131	12096.51365
500.34	11903.58014
500.549	12170.62697
500.757	11720.86546
500.966	12189.47474
501.175	11917.52653
501.384	12310.74349
501.592	11926.51744
501.801	12222.88857
502.01	12125.31805
502.218	12382.1363
502.427	12313.53389
502.636	12377.95087
502.844	12171.31058
503.053	12298.95688
503.262	12311.60968
503.47	12356.53241
503.679	12116.48279
503.887	12546.70827
504.096	12288.57387
504.304	12409.39224
504.513	12455.84078
504.721	12487.6031
504.93	12082.07685
505.138	12523.43266
505.347	12218.66821
505.555	12530.93779
505.764	12342.39088
505.972	12569.03796
506.18	11947.94975
506.389	12349.8897
506.597	12099.49321
506.806	12472.60323
507.014	12317.16746
507.222	12518.18044
507.431	12260.64629
507.639	12408.63479
507.847	12319.31749
508.055	12578.26564
508.264	12401.43684
508.472	12458.33282
508.68	12390.55138
508.888	12563.14796
509.096	12458.11847
509.305	12625.72922
509.513	12386.87116
509.721	12453.52667
509.929	12458.60929
510.137	12562.71286
510.345	12538.67121
510.553	12558.49732
510.762	12459.03742
510.97	12580.0568
511.178	12558.02415
511.386	12752.54018
511.594	12648.07815
511.802	12939.54647
512.01	12593.5648
512.218	12914.89198
512.426	12845.59437
512.634	13037.43758
512.842	12830.55197
513.049	13042.12821
513.257	12786.83878
513.465	13095.64922
513.673	12969.70359
513.881	13227.16831
514.089	13064.20326
514.297	13161.16804
514.504	13075.3835
514.712	13247.51469
514.92	13232.75418
515.128	13605.63087
515.336	13204.63973
515.543	13369.13051
515.751	13253.84269
515.959	13351.11084
516.166	13036.08533
516.374	13465.10061
516.582	13400.27718
516.789	13519.41896
516.997	13430.10105
517.205	13445.51931
517.412	13290.48716
517.62	13580.12575
517.827	13251.4095
518.035	13453.5513
518.243	13287.2814
518.45	13407.92666
518.658	13316.36939
518.865	13420.74843
519.073	13324.4887
519.28	13313.15996
519.488	13153.51762
519.695	13328.85062
519.902	12973.24837
520.11	13262.30218
520.317	13134.32748
520.525	13251.41953
520.732	13006.49661
520.939	13258.00576
521.147	12932.67762
521.354	13304.14024
521.561	13146.59622
521.769	13245.71205
521.976	12856.8763
522.183	13279.65933
522.391	12960.4605
522.598	13340.99822
522.805	13017.0325
523.012	13050.56953
523.219	13038.42058
523.427	13232.33273
523.634	13153.11245
523.841	13467.65473
524.048	13028.91144
524.255	13329.30382
524.462	13217.97319
524.669	13186.99517
524.877	13275.51104
525.084	13392.5105
525.291	13081.98338
525.498	13503.98131
525.705	13303.61035
525.912	13751.33791
526.119	13415.24446
526.326	13558.91438
526.533	13364.01471
526.74	13797.0479
526.947	13636.18106
527.153	13855.04464
527.36	13645.48212
527.567	13929.64898
527.774	13693.65556
527.981	13940.93293
528.188	13713.31439
528.395	14100.96075
528.602	13738.43535
528.808	14045.98278
529.015	13774.89365
529.222	14132.25248
529.429	13786.53993
529.635	14232.35861
529.842	14034.07369
530.049	14184.27445
530.256	13893.07
530.462	14244.4113
530.669	14064.61534
530.876	14143.31356
531.082	13985.37071
531.289	14331.194
531.495	14123.51065
531.702	14510.19296
531.909	14194.3486
532.115	14609.46253
532.322	14146.92333
532.528	14380.16635
532.735	14305.73978
532.941	14508.14221
533.148	14246.32617
533.354	14398.14527
533.561	14430.56519
533.767	14459.15555
533.974	14253.08061
534.18	14629.86117
534.387	14163.14417
534.593	14642.84796
534.799	14336.80733
535.006	14702.7326
535.212	14159.68054
535.418	14589.78649
535.625	14417.78496
535.831	14532.70869
536.037	14234.79297
536.244	14644.20292
536.45	14269.30025
536.656	14403.85611
536.862	14477.87062
537.068	14685.62936
537.275	14524.66251
537.481	14624.83903
537.687	14719.93346
537.893	14804.72231
538.099	14620.54182
538.305	14771.23327
538.512	14607.1548
538.718	14798.46409
538.924	14568.49069
539.13	14679.98349
539.336	14643.91737
539.542	14809.03387
539.748	14816.50837
539.954	14798.82761
540.16	14668.95789
540.366	14795.52317
540.572	14638.35344
540.778	14786.03996
540.984	14652.88645
541.19	14740.62778
541.396	14506.9926
541.602	14815.93518
541.807	14520.13405
542.013	14944.85851
542.219	14421.37216
542.425	14671.68363
542.631	14405.19524
542.837	14548.84191
543.042	14432.14505
543.248	14699.99402
543.454	14346.27196
543.66	14632.73825
543.865	14317.95421
544.071	14644.78989
544.277	14259.07886
544.483	14609.14555
544.688	14266.84654
544.894	14667.53901
545.1	14428.41554
545.305	14591.49972
545.511	14385.61896
545.716	14420.96413
545.922	14268.25358
546.128	14451.88906
546.333	14369.75749
546.539	14631.70305
546.744	14266.8181
546.95	14501.86515
547.155	14286.66313
547.361	14544.63906
547.566	14198.49135
547.772	14454.76738
547.977	14342.53728
548.182	14342.42252
548.388	14330.74518
548.593	14399.10558
548.799	14155.24894
549.004	14473.84026
549.209	14348.41988
549.415	14464.75564
549.62	14089.47342
549.825	14447.40125
550.031	14181.79834
550.236	14461.7541
550.441	14334.18208
550.646	14423.52592
550.852	14484.29305
551.057	14421.37986
551.262	14420.31041
551.467	14537.01805
551.672	14253.48707
551.878	14481.56404
552.083	14280.17522
552.288	14539.33823
552.493	14364.0995
552.698	14356.87422
552.903	14369.38525
553.108	14704.45688
553.313	14425.10657
553.518	14544.94117
553.723	14458.15235
553.928	14659.86713
554.133	14477.98967
554.338	14644.63475
554.543	14519.34741
554.748	14625.25155
554.953	14640.90451
555.158	14673.80392
555.363	14690.57468
555.568	14611.49031
555.773	14693.64856
555.978	14741.48681
556.182	14412.03397
556.387	14543.64013
556.592	14439.76603
556.797	14851.57873
557.002	14601.84421
557.206	14785.53089
557.411	14431.61344
557.616	14601.09746
557.821	14723.40359
558.025	14638.35017
558.23	14592.20325
558.435	14783.03029
558.64	14623.29669
558.844	14767.79428
559.049	14547.40809
559.253	14866.23106
559.458	14525.10101
559.663	14763.6188
559.867	14560.32706
560.072	14567.51934
560.276	14435.59348
560.481	14709.74762
560.685	14532.43419
560.89	14614.89202
561.094	14557.14999
561.299	14616.47792
561.503	14184.11828
561.708	14590.23153
561.912	14253.03085
562.117	14397.40786
562.321	14193.32154
562.525	14534.32779
562.73	14348.41202
562.934	14403.41502
563.139	14218.41939
563.343	14421.10187
563.547	14243.27137
563.752	14373.28194
563.956	14227.12556
564.16	14342.42252
564.364	14214.11095
564.569	14241.60148
564.773	14114.16127
564.977	14338.78433
565.181	14207.35929
565.385	14273.56854
565.59	14045.51863
565.794	14330.51168
565.998	13977.02869
566.202	14136.30416
566.406	14014.22336
566.61	14232.50011
566.814	13962.10034
567.018	14277.80839
567.222	13985.43207
567.426	14007.32704
567.63	13983.08525
567.834	14099.18175
568.038	13990.67472
568.242	14015.01337
568.446	13889.56612
568.65	14071.12868
568.854	13835.34297
