Data from Sun spf650_Subt2__2__10-03-15-990.txt Node

Date: Tue Sep 23 10:03:15 EDT 2025
User: brett
Spectrometer: USB4F03499
Trigger mode: 4
Integration Time (sec): 1.000000E-1
Scans to average: 1
Electric dark correction enabled: true
Nonlinearity correction enabled: true
Boxcar width: 0
XAxis mode: Wavelengths
Number of Pixels in Spectrum: 3648
>>>>>Begin Spectral Data<<<<<
0	-60.2569
0.225	-60.2569
0.449	-60.2569
0.674	-97.08428
0.898	-108.66804
1.123	-18.5068
1.347	70.72048
1.572	38.77478
1.796	34.25826
2.021	38.77173
2.245	-9.33861
2.469	22.73093
2.694	-89.5341
2.918	-36.90983
3.143	-76.01708
3.367	-18.52566
3.591	43.36924
3.815	-48.371
4.04	1520.81729
4.264	2168.11519
4.488	2258.24437
4.712	2130.25746
4.936	2046.03013
5.161	2122.75521
5.385	2126.79991
5.609	2037.15353
5.833	2143.71341
6.057	2078.68797
6.281	2134.50389
6.505	2218.51312
6.729	2078.77106
6.953	2267.02834
7.177	2090.00657
7.401	2183.84026
7.625	2219.23129
7.849	2075.08591
8.073	2242.50018
8.297	2179.25733
8.521	2065.19399
8.744	2117.61665
8.968	2222.76432
9.192	2229.09477
9.416	2271.48323
9.64	2175.9265
9.863	2371.7514
10.087	2214.20149
10.311	2235.47603
10.535	2265.17953
10.758	2142.5247
10.982	2251.16965
11.205	2301.14846
11.429	2306.82273
11.653	2245.88998
11.876	2184.90093
12.1	2360.27734
12.323	2308.82396
12.547	2370.29128
12.77	2421.14864
12.994	2201.32437
13.217	2417.81598
13.441	2269.65548
13.664	2376.04888
13.887	2278.54933
14.111	2338.91704
14.334	2293.79714
14.557	2235.1275
14.781	2472.28021
15.004	2327.05328
15.227	2347.64988
15.451	2464.36215
15.674	2290.40944
15.897	2227.37153
16.12	2422.48073
16.343	2390.74086
16.567	2502.50277
16.79	2514.13132
17.013	2418.65548
17.236	2530.49663
17.459	2539.82368
17.682	2351.94945
17.905	2625.30721
18.128	2635.64361
18.351	2681.26817
18.574	2494.93044
18.797	2710.91405
19.02	2612.49406
19.243	2779.12997
19.466	2695.79519
19.689	2794.52951
19.911	2912.89864
20.134	2873.16696
20.357	2856.85918
20.58	2855.72555
20.803	3096.31429
21.025	3128.74508
21.248	3030.97572
21.471	3170.14056
21.694	3216.97118
21.916	3094.52804
22.139	3445.24579
22.362	3306.22163
22.584	3391.10427
22.807	3576.9609
23.029	3432.33064
23.252	3679.15017
23.475	3987.2177
23.697	3811.91075
23.92	4095.51155
24.142	3863.90407
24.365	4077.60703
24.587	4187.957
24.809	4353.81641
25.032	4350.56831
25.254	4372.80104
25.477	4801.02368
25.699	4810.6933
25.921	4962.48553
26.144	5114.65799
26.366	5250.08187
26.588	5334.65385
26.81	5630.07322
27.033	5759.52447
27.255	5821.13921
27.477	6286.81481
27.699	6487.4921
27.921	6723.03263
28.144	6906.35405
28.366	7222.8647
28.588	7435.01335
28.81	7675.6533
29.032	8206.27108
29.254	8600.50625
29.476	8897.62519
29.698	9052.46534
29.92	9549.8891
30.142	10083.4477
30.364	10407.8364
30.586	10800.50659
30.808	11047.30497
31.029	11822.66071
31.251	12086.39771
31.473	12724.78918
31.695	13284.7311
31.917	13376.43789
32.139	13852.28692
32.36	14673.79322
32.582	15174.3305
32.804	15260.16807
33.026	16076.55889
33.247	16328.62314
33.469	16886.17742
33.691	17410.75346
33.912	18336.02096
34.134	18161.94603
34.355	18713.61806
34.577	19368.75805
34.798	20028.24866
35.02	20375.28302
35.242	20511.75519
35.463	21526.53424
35.684	21946.05348
35.906	22084.28734
36.127	22931.63632
36.349	22854.29498
36.57	24262.43329
36.792	25222.90241
37.013	25237.16016
37.234	25084.38541
37.456	26260.87435
37.677	26763.19182
37.898	27111.15148
38.119	27060.25963
38.341	28182.27306
38.562	28561.28449
38.783	29108.79883
39.004	28794.60066
39.225	29020.74659
39.447	30131.27243
39.668	31215.66942
39.889	31073.33906
40.11	31921.61004
40.331	32379.36464
40.552	32877.40497
40.773	33243.64886
40.994	34114.09525
41.215	34172.67612
41.436	35304.26297
41.657	35581.44254
41.878	36349.49872
42.099	37836.15049
42.32	38548.82226
42.54	39529.56365
42.761	41011.90419
42.982	41678.17873
43.203	43207.35958
43.424	44779.66354
43.645	44738.45846
43.865	46446.85928
44.086	46965.09449
44.307	48834.59984
44.527	50307.78605
44.748	51639.54201
44.969	52445.34227
45.189	51866.50489
45.41	52791.63167
45.631	55861.11996
45.851	54766.11127
46.072	55877.32865
46.292	56629.00702
46.513	57425.39659
46.733	60093.23005
46.954	60869.5077
47.174	62978.24502
47.395	62438.539
47.615	65518.36971
47.836	65511.50471
48.056	65619.24216
48.276	65575.6407
48.497	65509.21673
48.717	65513.79286
48.937	65472.63323
49.158	65593.99122
49.378	65591.69677
49.598	65566.46979
49.818	65495.4926
50.038	65500.0666
50.259	65607.76173
50.479	65644.51522
50.699	65573.3477
50.919	65568.76225
51.139	65550.42764
51.359	65577.93388
51.579	65596.28585
51.799	65593.99122
52.02	65580.22725
52.24	65543.55512
52.46	65584.81451
52.68	65600.87565
52.899	65545.84578
53.119	65571.05489
53.339	65612.35335
53.559	65561.88542
53.779	65481.77486
53.999	65502.35387
54.219	65438.3772
54.439	65623.83561
54.658	65658.30989
54.878	65559.5935
55.098	65598.58066
55.318	65536.68423
55.538	65509.21673
55.757	65559.5935
55.977	65571.05489
56.197	65500.0666
56.416	65573.3477
56.636	65571.05489
56.855	65593.99122
57.075	65509.21673
57.295	65605.46619
57.514	65646.81387
57.734	65543.55512
57.953	65559.5935
58.173	65550.42764
58.392	65587.10841
58.612	65596.28585
58.831	65600.87565
59.051	65538.97435
59.27	65472.63323
59.489	65555.01021
59.709	65568.76225
59.928	65589.4025
60.147	65573.3477
60.367	65598.58066
60.586	65520.6584
60.805	65580.22725
61.024	65561.88542
61.244	65642.21675
61.463	65575.6407
61.682	65552.71883
61.901	65541.26464
62.12	65598.58066
62.34	65561.88542
62.559	65566.46979
62.778	65442.94239
62.997	65587.10841
63.216	65630.72716
63.435	65623.83561
63.654	65472.63323
63.873	65584.81451
64.092	65571.05489
64.311	65511.50471
64.53	65550.42764
64.749	65568.76225
64.968	65557.30176
65.187	65653.71093
65.405	65571.05489
65.624	65566.46979
65.843	65545.84578
66.062	65555.01021
66.281	65518.36971
66.499	65642.21675
66.718	65623.83561
66.937	65541.26464
67.156	65557.30176
67.374	65596.28585
67.593	65458.92608
67.812	65566.46979
68.03	65577.93388
68.249	65626.13261
68.467	65596.28585
68.686	65529.81494
68.905	57464.27738
69.123	31032.26909
69.342	22636.79421
69.56	20644.96967
69.779	19383.64304
69.997	18559.05754
70.216	17478.62281
70.434	15940.34239
70.652	15125.72461
70.871	14349.06946
71.089	13302.72035
71.307	12531.3895
71.526	11558.98744
71.744	11227.52758
71.962	10547.88427
72.181	10016.62912
72.399	9630.92047
72.617	8865.51568
72.835	8423.60991
73.054	8096.39517
73.272	7689.11224
73.49	7427.16867
73.708	7411.08265
73.926	7221.40969
74.144	6987.43994
74.362	6660.69816
74.58	6579.11795
74.798	6544.25846
75.016	6355.0905
75.234	6307.70282
75.452	6221.29197
75.67	6429.20106
75.888	6280.43442
76.106	6404.0235
76.324	6369.94405
76.542	6319.48656
76.76	6090.18543
76.978	6313.81568
77.196	6152.1462
77.413	6150.20095
77.631	6265.9823
77.849	6310.52612
78.067	6141.54062
78.284	6029.02928
78.502	6241.42496
78.72	6114.90718
78.938	6594.03405
79.155	6294.46885
79.373	6264.88198
79.59	6196.5408
79.808	6469.69599
80.026	6342.11932
80.243	6346.43692
80.461	6116.18478
80.678	6399.771
80.896	6389.99817
81.113	6507.3393
81.331	6331.65564
81.548	6425.2578
81.766	6692.70086
81.983	6815.19651
82.2	6784.34239
82.418	6806.94302
82.635	6846.37948
82.852	6898.64416
83.07	6902.86592
83.287	6977.28969
83.504	7239.15728
83.722	6977.28771
83.939	7186.24504
84.156	7104.33626
84.373	7320.66421
84.591	7293.54868
84.808	7296.01148
85.025	7427.30215
85.242	7466.2048
85.459	7505.95739
85.676	7730.00159
85.893	7579.92714
86.11	7681.30841
86.327	8021.41007
86.544	7885.25088
86.761	7866.51686
86.978	7728.972
87.195	8129.35322
87.412	8184.99712
87.629	8210.68194
87.846	8654.35822
88.063	8359.67068
88.28	8269.866
88.497	8604.16946
88.713	8660.23904
88.93	8871.17033
89.147	8721.14823
89.364	9107.38323
89.58	9292.14748
89.797	9194.08952
90.014	9266.21368
90.231	9368.77019
90.447	9253.13032
90.664	9188.04061
90.881	9076.21164
91.097	9111.09837
91.314	9168.36913
91.53	9518.39742
91.747	9430.14172
91.963	9744.28275
92.18	10078.92436
92.396	10278.36015
92.613	9861.68423
92.829	10095.3751
93.046	10715.83588
93.262	10317.88349
93.479	10228.15235
93.695	10130.27063
93.911	10557.45146
94.128	10835.5555
94.344	10768.5426
94.56	11141.80473
94.777	11127.56034
94.993	11135.15101
95.209	11807.36039
95.426	11590.02479
95.642	11899.46529
95.858	12076.04257
96.074	12549.76225
96.29	12654.64175
96.506	12974.65475
96.723	13597.85447
96.939	13822.3603
97.155	13633.27207
97.371	13562.62387
97.587	13584.6397
97.803	14509.63913
98.019	15341.27021
98.235	15514.54084
98.451	15917.5576
98.667	15479.60996
98.883	15671.65239
99.099	16922.5163
99.315	17529.2629
99.53	17828.5147
99.746	17897.11768
99.962	17749.03769
100.178	19436.49282
100.394	20804.25375
100.61	22066.59353
100.825	22285.52744
101.041	23474.62598
101.257	24103.86047
101.473	26094.27384
101.688	27168.23681
101.904	28457.01575
102.12	30677.9196
102.335	33684.95361
102.551	34597.87461
102.766	39784.68492
102.982	42705.64867
103.198	46875.72307
103.413	49899.52643
103.629	53974.37624
103.844	59961.93197
104.06	63270.24999
104.275	65527.52554
104.49	65545.84578
104.706	65619.24216
104.921	64983.01503
105.137	65566.46979
105.352	65500.0666
105.567	65580.22725
105.783	65557.30176
105.998	65550.42764
106.213	65532.10452
106.429	65616.94571
106.644	65600.87565
106.859	65559.5935
107.074	65433.81271
107.29	65619.24216
107.505	65584.81451
107.72	65513.79286
107.935	65518.36971
108.15	65550.42764
108.365	65630.72716
108.58	65527.52554
108.795	65520.6584
109.01	65527.52554
109.226	65651.41172
109.441	65413.28114
109.656	65630.72716
109.871	65463.49442
110.085	65532.10452
110.3	65561.88542
110.515	65639.91846
110.73	65477.20369
110.945	65589.4025
111.16	65532.10452
111.375	65536.68423
111.59	65584.81451
111.804	65555.01021
112.019	65557.30176
112.234	65593.99122
112.449	65532.10452
112.663	65571.05489
112.878	65593.99122
113.093	65573.3477
113.308	65486.34673
113.522	65571.05489
113.737	65692.82567
113.951	65541.26464
114.166	65573.3477
114.381	65561.88542
114.595	65584.81451
114.81	65555.01021
115.024	65568.76225
115.239	65541.26464
115.453	65603.17083
115.668	65587.10841
115.882	65534.39429
116.097	65587.10841
116.311	65669.81052
116.525	65561.88542
116.74	65676.71312
116.954	65525.23631
117.169	65573.3477
117.383	65555.01021
117.597	65511.50471
117.811	65571.05489
118.026	65486.34673
118.24	65522.94726
118.454	65575.6407
118.668	65577.93388
118.883	65577.93388
119.097	65559.5935
119.311	65559.5935
119.525	65561.88542
119.739	65566.46979
119.953	65587.10841
120.167	65445.22525
120.381	65596.28585
120.595	65561.88542
120.809	65603.17083
121.023	65548.13662
121.237	65587.10841
121.451	65596.28585
121.665	65591.69677
121.879	65559.5935
122.093	65495.4926
122.307	65667.51002
122.521	65607.76173
122.735	65495.4926
122.949	65591.69677
123.163	65646.81387
123.376	65529.81494
123.59	65509.21673
123.804	65566.46979
124.018	65603.17083
124.231	65614.64944
124.445	65637.62036
124.659	65493.20587
124.872	65474.91837
125.086	65571.05489
125.3	65566.46979
125.513	65548.13662
125.727	65603.17083
125.94	65550.42764
126.154	65571.05489
126.368	65619.24216
126.581	65593.99122
126.795	65603.17083
127.008	65598.58066
127.222	65630.72716
127.435	65619.24216
127.648	65616.94571
127.862	65545.84578
128.075	65610.05745
128.289	65527.52554
128.502	65621.5388
128.715	65557.30176
128.929	65672.1112
129.142	65598.58066
129.355	65568.76225
129.568	65506.92893
129.782	65545.84578
129.995	65490.91931
130.208	65591.69677
130.421	65612.35335
130.634	65605.46619
130.848	65527.52554
131.061	65490.91931
131.274	65532.10452
131.487	65630.72716
131.7	65603.17083
131.913	65529.81494
132.126	65575.6407
132.339	65479.48918
132.552	65390.4848
132.765	65497.77951
132.978	65575.6407
133.191	65598.58066
133.404	65534.39429
133.617	65593.99122
133.83	65545.84578
134.043	65623.83561
134.255	65649.1127
134.468	65548.13662
134.681	65644.51522
134.894	65685.91917
135.107	65614.64944
135.319	65536.68423
135.532	65564.17751
135.745	65529.81494
135.958	65582.52079
136.17	65656.01031
136.383	65559.5935
136.596	65607.76173
136.808	65580.22725
137.021	65518.36971
137.233	65610.05745
137.446	65552.71883
137.659	65591.69677
137.871	65442.94239
138.084	65582.52079
138.296	65543.55512
138.509	65577.93388
138.721	65612.35335
138.934	65559.5935
139.146	65545.84578
139.358	65605.46619
139.571	65484.0607
139.783	65488.63293
139.996	65564.17751
140.208	65509.21673
140.42	65516.0812
140.632	65543.55512
140.845	65596.28585
141.057	65656.01031
141.269	65603.17083
141.481	65577.93388
141.694	65623.83561
141.906	65557.30176
142.118	65674.41207
142.33	65550.42764
142.542	65630.72716
142.754	65538.97435
142.967	65662.90959
143.179	65616.94571
143.391	65504.64131
143.603	65596.28585
143.815	65493.20587
144.027	65573.3477
144.239	65465.77886
144.451	65564.17751
144.663	65575.6407
144.875	65500.0666
145.086	65468.06347
145.298	65520.6584
145.51	65598.58066
145.722	65502.35387
145.934	65591.69677
146.146	65596.28585
146.358	65580.22725
146.569	65630.72716
146.781	65545.84578
146.993	65628.4298
147.205	65481.77486
147.416	65582.52079
147.628	65573.3477
147.84	65532.10452
148.051	65580.22725
148.263	65545.84578
148.475	65619.24216
148.686	65584.81451
148.898	65509.21673
149.109	65493.20587
149.321	65621.5388
149.532	65500.0666
149.744	65557.30176
149.955	65534.39429
150.167	65589.4025
150.378	65575.6407
150.59	65605.46619
150.801	65644.51522
151.013	65630.72716
151.224	65493.20587
151.435	65580.22725
151.647	65493.20587
151.858	65548.13662
152.069	65580.22725
152.281	65582.52079
152.492	65552.71883
152.703	65587.10841
152.914	65452.07487
153.126	65548.13662
153.337	65552.71883
153.548	65649.1127
153.759	65543.55512
153.97	65628.4298
154.181	65612.35335
154.392	65522.94726
154.604	65639.91846
154.815	65603.17083
155.026	65536.68423
155.237	65580.22725
155.448	65472.63323
155.659	65555.01021
155.87	65561.88542
156.081	65541.26464
156.292	65610.05745
156.502	65642.21675
156.713	65538.97435
156.924	65516.0812
157.135	65559.5935
157.346	65575.6407
157.557	65538.97435
157.768	65605.46619
157.978	65646.81387
158.189	65550.42764
158.4	65612.35335
158.611	65550.42764
158.821	65500.0666
159.032	65589.4025
159.243	65520.6584
159.453	65568.76225
159.664	65568.76225
159.875	65529.81494
160.085	65605.46619
160.296	65529.81494
160.507	65589.4025
160.717	65614.64944
160.928	65527.52554
161.138	65731.99417
161.349	65587.10841
161.559	65653.71093
161.77	65584.81451
161.98	65607.76173
162.19	65534.39429
162.401	65589.4025
162.611	65522.94726
162.822	65596.28585
163.032	65589.4025
163.242	65603.17083
163.453	65522.94726
163.663	65626.13261
163.873	65550.42764
164.084	65612.35335
164.294	65623.83561
164.504	65573.3477
164.714	65555.01021
164.924	65557.30176
165.135	65607.76173
165.345	65527.52554
165.555	65566.46979
165.765	65513.79286
165.975	65522.94726
166.185	65571.05489
166.395	65598.58066
166.605	65639.91846
166.815	65628.4298
167.025	65587.10841
167.235	65488.63293
167.445	65685.91917
167.655	65550.42764
167.865	65580.22725
168.075	65564.17751
168.285	65580.22725
168.495	65561.88542
168.705	65497.77951
168.915	65472.63323
169.124	65536.68423
169.334	65538.97435
169.544	65543.55512
169.754	65580.22725
169.964	65534.39429
170.173	65509.21673
170.383	65555.01021
170.593	65561.88542
170.802	65518.36971
171.012	65621.5388
171.222	65584.81451
171.431	65626.13261
171.641	65591.69677
171.851	65646.81387
172.06	65605.46619
172.27	65607.76173
172.479	65541.26464
172.689	65603.17083
172.898	65550.42764
173.108	65593.99122
173.317	65527.52554
173.527	65633.02471
173.736	65637.62036
173.945	65564.17751
174.155	65525.23631
174.364	65527.52554
174.574	65564.17751
174.783	65575.6407
174.992	65513.79286
175.202	65573.3477
175.411	65516.0812
175.62	65603.17083
175.829	65616.94571
176.039	65552.71883
176.248	65522.94726
176.457	65575.6407
176.666	65490.91931
176.875	65607.76173
177.084	65536.68423
177.294	65614.64944
177.503	65628.4298
177.712	65486.34673
177.921	65610.05745
178.13	65577.93388
178.339	65665.20971
178.548	65598.58066
178.757	65566.46979
178.966	65527.52554
179.175	65541.26464
179.384	65584.81451
179.593	65561.88542
179.802	65639.91846
180.011	65566.46979
180.219	65587.10841
180.428	65557.30176
180.637	65557.30176
180.846	65527.52554
181.055	65559.5935
181.263	65584.81451
181.472	65481.77486
181.681	65614.64944
181.89	65550.42764
182.098	65484.0607
182.307	65591.69677
182.516	65552.71883
182.724	65568.76225
182.933	65532.10452
183.142	65656.01031
183.35	65552.71883
183.559	65559.5935
183.767	65575.6407
183.976	65605.46619
184.184	65619.24216
184.393	65545.84578
184.601	65605.46619
184.81	65486.34673
185.018	65610.05745
185.227	65548.13662
185.435	65628.4298
185.644	65532.10452
185.852	65674.41207
186.06	65529.81494
186.269	65529.81494
186.477	65525.23631
186.685	65573.3477
186.894	65484.0607
187.102	65568.76225
187.31	65500.0666
187.518	65573.3477
187.727	65658.30989
187.935	65635.32245
188.143	65575.6407
188.351	65543.55512
188.559	65635.32245
188.768	65497.77951
188.976	65518.36971
189.184	65534.39429
189.392	65532.10452
189.6	65541.26464
189.808	65461.21016
190.016	65603.17083
190.224	65591.69677
190.432	65561.88542
190.64	65566.46979
190.848	65557.30176
191.056	65509.21673
191.264	65548.13662
191.472	65573.3477
191.679	65589.4025
191.887	65582.52079
192.095	65665.20971
192.303	65545.84578
192.511	65596.28585
192.719	65672.1112
192.926	65516.0812
193.134	65672.1112
193.342	65600.87565
193.55	65580.22725
193.757	65573.3477
193.965	65550.42764
194.173	65534.39429
194.38	65639.91846
194.588	65614.64944
194.796	65593.99122
195.003	65518.36971
195.211	65614.64944
195.418	65596.28585
195.626	65662.90959
195.833	65557.30176
196.041	65513.79286
196.248	65573.3477
196.456	65516.0812
196.663	65472.63323
196.871	65603.17083
197.078	65555.01021
197.285	65580.22725
197.493	65555.01021
197.7	65436.09487
197.908	65548.13662
198.115	65589.4025
198.322	65559.5935
198.529	65630.72716
198.737	65649.1127
198.944	65555.01021
199.151	65646.81387
199.358	65612.35335
199.566	65690.52332
199.773	65481.77486
199.98	65577.93388
200.187	65607.76173
200.394	65571.05489
200.601	65449.79149
200.809	65660.60964
201.016	65548.13662
201.223	65541.26464
201.43	65656.01031
201.637	65598.58066
201.844	65603.17083
202.051	65676.71312
202.258	65552.71883
202.465	65593.99122
202.672	65665.20971
202.878	65571.05489
203.085	65598.58066
203.292	65552.71883
203.499	65522.94726
203.706	65571.05489
203.913	65568.76225
204.12	65630.72716
204.326	65612.35335
204.533	65623.83561
204.74	65513.79286
204.947	65561.88542
205.153	65573.3477
205.36	65557.30176
205.567	65662.90959
205.773	65656.01031
205.98	65534.39429
206.187	65577.93388
206.393	65568.76225
206.6	65591.69677
206.806	65633.02471
207.013	65506.92893
207.22	65513.79286
207.426	65623.83561
207.633	65564.17751
207.839	65497.77951
208.046	65529.81494
208.252	65532.10452
208.458	65527.52554
208.665	65555.01021
208.871	65593.99122
209.078	65486.34673
209.284	65577.93388
209.49	65589.4025
209.697	65591.69677
209.903	65630.72716
210.109	65596.28585
210.316	65529.81494
210.522	65610.05745
210.728	65548.13662
210.934	65351.77062
211.14	65591.69677
211.347	65651.41172
211.553	65536.68423
211.759	65559.5935
211.965	65513.79286
212.171	65536.68423
212.377	65502.35387
212.583	65564.17751
212.789	65600.87565
212.996	65550.42764
213.202	65516.0812
213.408	65557.30176
213.614	65564.17751
213.82	65612.35335
214.025	65596.28585
214.231	65642.21675
214.437	65600.87565
214.643	65497.77951
214.849	65561.88542
215.055	65568.76225
215.261	65626.13261
215.467	65559.5935
215.672	65639.91846
215.878	65500.0666
216.084	65619.24216
216.29	65559.5935
216.496	65484.0607
216.701	65527.52554
216.907	65621.5388
217.113	65561.88542
217.318	65493.20587
217.524	65605.46619
217.73	65616.94571
217.935	65584.81451
218.141	65532.10452
218.346	65550.42764
218.552	65582.52079
218.758	65550.42764
218.963	65538.97435
219.169	65548.13662
219.374	65559.5935
219.58	65559.5935
219.785	65580.22725
219.991	65506.92893
220.196	65660.60964
220.401	65593.99122
220.607	65564.17751
220.812	65479.48918
221.017	65568.76225
221.223	65516.0812
221.428	65490.91931
