Data from mildly cloudy_Subt2__2__14-15-27-153.txt Node

Date: Mon Oct 13 14:15:27 EDT 2025
User: brett
Spectrometer: USB4F03499
Trigger mode: 4
Integration Time (sec): 8.500000E-4
Scans to average: 1
Electric dark correction enabled: true
Nonlinearity correction enabled: true
Boxcar width: 0
XAxis mode: Wavelengths
Number of Pixels in Spectrum: 3648
>>>>>Begin Spectral Data<<<<<
345.386	65.83672
345.605	65.83672
345.824	65.83672
346.044	81.70106
346.263	62.43752
346.482	-40.22795
346.701	-22.19893
346.92	-3.00857
347.139	-4.13975
347.358	3.75984
347.577	-16.54265
347.796	19.56251
348.015	34.24968
348.234	-16.54968
348.453	-10.905
348.672	25.19432
348.891	30.85096
349.11	13.91489
349.329	316.83304
349.548	1137.54132
349.767	1050.0676
349.986	1162.2657
350.205	1078.16899
350.424	1144.73922
350.643	1173.43338
350.862	1194.00425
351.08	1096.88676
351.299	1086.17112
351.518	1119.59025
351.737	1258.88423
351.956	1182.74221
352.174	1217.24793
352.393	1252.36452
352.612	1291.23832
352.831	1243.78168
353.049	1295.14833
353.268	1265.1011
353.487	1363.34657
353.705	1282.60401
353.924	1387.75238
354.143	1392.57402
354.361	1489.35115
354.58	1449.49542
354.798	1544.68269
355.017	1436.22985
355.236	1562.50354
355.454	1551.25965
355.673	1657.42631
355.891	1550.59686
356.11	1624.27406
356.328	1570.60012
356.547	1615.4406
356.765	1609.67076
356.984	1670.42165
357.202	1744.24842
357.42	1777.83175
357.639	1675.53529
357.857	1690.44362
358.076	1644.63203
358.294	1693.39032
358.512	1721.0084
358.731	1688.06297
358.949	1594.06211
359.167	1751.64228
359.386	1714.21927
359.604	1684.69451
359.822	1767.61214
360.04	1879.47921
360.259	1828.10657
360.477	1865.58343
360.695	1773.63464
360.913	1849.3172
361.131	1815.21161
361.35	1903.04739
361.568	1854.5884
361.786	1876.80525
362.004	1886.71466
362.222	1959.86088
362.44	1894.19019
362.658	1909.90509
362.876	1853.35811
363.094	1949.65651
363.312	1861.77955
363.53	1921.93465
363.749	1917.25418
363.967	1923.3752
364.184	1898.00686
364.402	1984.40801
364.62	2007.11054
364.838	1961.37375
365.056	2053.11367
365.274	2168.35719
365.492	2063.79563
365.71	2167.31032
365.928	2247.34597
366.146	2431.7872
366.364	2309.8197
366.581	2313.18013
366.799	2379.51976
367.017	2452.55513
367.235	2547.09369
367.453	2720.45243
367.67	2622.87344
367.888	2753.27603
368.106	2639.1113
368.323	2784.90921
368.541	2821.82518
368.759	2851.05716
368.977	2848.73288
369.194	2901.13339
369.412	3038.34146
369.629	3102.06814
369.847	2958.48377
370.065	3102.8462
370.282	3169.07457
370.5	3182.25351
370.717	3243.2362
370.935	3269.24399
371.152	3339.96171
371.37	3358.25793
371.588	3361.13563
371.805	3511.02663
372.022	3489.21118
372.24	3623.12373
372.457	3431.61487
372.675	3552.41207
372.892	3601.6076
373.11	3605.62757
373.327	3619.23513
373.544	3590.59842
373.762	3582.38363
373.979	3643.30593
374.196	3605.53197
374.414	3646.34027
374.631	3552.22344
374.848	3639.65803
375.066	3579.56643
375.283	3461.2429
375.5	3444.5046
375.717	3538.02609
375.935	3617.28401
376.152	3645.88014
376.369	3638.98369
376.586	3664.27193
376.803	3463.73846
377.02	3629.20464
377.238	3627.29104
377.455	3545.56154
377.672	3770.01985
377.889	3697.43696
378.106	3613.49603
378.323	3789.70299
378.54	3777.12879
378.757	3652.05538
378.974	3642.99531
379.191	3808.97163
379.408	3820.79062
379.625	3844.55404
379.842	3744.23434
380.059	3933.92245
380.276	3937.59239
380.493	3779.33868
380.71	3961.0791
380.927	3906.52521
381.143	3911.12134
381.36	4024.46065
381.577	4037.12552
381.794	4048.508
382.011	3958.82174
382.228	4059.50174
382.444	4117.98388
382.661	4112.2356
382.878	4220.06852
383.095	4130.38208
383.311	4172.65489
383.528	4038.64901
383.745	4053.73629
383.962	4127.81564
384.178	4143.5963
384.395	4132.63953
384.612	4093.77981
384.828	4085.99104
385.045	4098.07166
385.261	4053.95424
385.478	4141.48963
385.695	4096.73818
385.911	4124.32581
386.128	4114.27726
386.344	4076.13763
386.561	4125.49121
386.777	4027.06224
386.994	4064.03494
387.21	3889.58941
387.427	3910.82177
387.643	3962.37676
387.86	3965.7363
388.076	3871.62788
388.292	3879.02976
388.509	3633.24134
388.725	4057.94259
388.942	3985.51479
389.158	3950.44148
389.374	4005.38138
389.591	3843.78138
389.807	3950.82198
390.023	4045.7696
390.239	3957.99777
390.456	4145.76282
390.672	4036.91061
390.888	3966.42034
391.104	4166.77234
391.321	4255.86378
391.537	4440.5791
391.753	4305.18863
391.969	4545.05923
392.185	4595.97252
392.401	4584.69466
392.618	4599.17977
392.834	4504.31044
393.05	4869.5891
393.266	4711.01987
393.482	4709.47309
393.698	4657.67925
393.914	4624.21835
394.13	4767.80932
394.346	4497.47938
394.562	4583.30675
394.778	4630.88161
394.994	4732.4906
395.21	4854.16299
395.426	4866.77007
395.642	4944.87661
395.858	5075.91626
396.073	4906.96805
396.289	4912.95083
396.505	5122.05105
396.721	5021.45009
396.937	5152.19873
397.153	4773.65971
397.369	4913.50458
397.584	5150.60643
397.8	5061.09841
398.016	4986.1603
398.232	5209.98136
398.447	5028.74875
398.663	5142.29736
398.879	5058.39814
399.094	5285.007
399.31	5225.4303
399.526	5049.9441
399.741	5328.97961
399.957	5329.83156
400.173	5206.42396
400.388	5287.57606
400.604	5430.97879
400.82	5474.13266
401.035	5711.12475
401.251	5691.73866
401.466	5738.01926
401.682	6038.36788
401.897	6149.4019
402.113	6120.19802
402.328	6351.40317
402.544	6386.51606
402.759	6410.44913
402.974	6648.34904
403.19	6635.78283
403.405	7172.54435
403.621	7396.40745
403.836	7349.19415
404.051	7546.71296
404.267	7627.10744
404.482	7571.429
404.697	7469.04174
404.913	7619.13316
405.128	8161.05919
405.343	7935.25848
405.559	8014.0424
405.774	8084.7668
405.989	8577.3622
406.204	8584.34213
406.42	8511.83367
406.635	8710.0505
406.85	8668.12541
407.065	8791.34007
407.28	9009.07314
407.495	9038.67204
407.71	8701.15516
407.926	8790.9254
408.141	9481.26797
408.356	9087.86721
408.571	9209.04589
408.786	8995.48285
409.001	9191.38033
409.216	9405.62866
409.431	9440.16977
409.646	9267.45381
409.861	9304.0645
410.076	9233.83993
410.291	9291.27525
410.506	9555.44844
410.721	9208.3465
410.936	9443.21721
411.15	9203.25287
411.365	9519.70276
411.58	9590.52032
411.795	9388.53271
412.01	9863.98919
412.225	9495.52354
412.439	9222.96492
412.654	9454.38935
412.869	9410.14058
413.084	9622.13349
413.299	9699.58716
413.513	9264.73822
413.728	9251.57241
413.943	9583.78926
414.157	9745.70039
414.372	9660.94676
414.587	9856.15769
414.801	10119.79709
415.016	10014.72879
415.231	10028.58728
415.445	9948.82354
415.66	9972.75626
415.874	10245.78994
416.089	10000.49345
416.304	10480.75588
416.518	10078.33633
416.733	10365.56696
416.947	9990.74634
417.162	10079.4646
417.376	10483.80977
417.59	10668.66285
417.805	10658.1327
418.019	10480.59961
418.234	10320.14969
418.448	10009.66673
418.663	10498.99935
418.877	10287.80132
419.091	10519.64545
419.306	10525.42405
419.52	10615.15106
419.734	10432.45078
419.949	10797.77259
420.163	11006.19064
420.377	10448.55621
420.591	10577.77949
420.806	10738.65768
421.02	10561.00589
421.234	10759.03665
421.448	10767.25942
421.663	10848.11478
421.877	10604.45387
422.091	10576.40821
422.305	10419.89882
422.519	10573.23479
422.733	11192.53394
422.947	10497.80959
423.161	10577.64333
423.376	10733.19033
423.59	10764.96304
423.804	10818.77449
424.018	10874.33758
424.232	10798.81375
424.446	11104.05943
424.66	10829.20383
424.874	10818.50027
425.088	10515.2787
425.302	10686.44147
425.515	11112.87639
425.729	11146.60527
425.943	11162.92229
426.157	11216.28308
426.371	10979.24894
426.585	10974.05899
426.799	11112.48189
427.013	11734.2939
427.226	11651.90775
427.44	11079.26012
427.654	11027.62901
427.868	11010.47801
428.081	11181.64351
428.295	11063.46466
428.509	11155.73144
428.723	10988.81871
428.936	10924.3087
429.15	10654.44059
429.364	11035.11758
429.577	10498.00771
429.791	10652.59144
430.005	11266.92795
430.218	11013.13205
430.432	10550.52279
430.645	10543.61749
430.859	10684.90642
431.073	10693.21627
431.286	11120.03204
431.5	11152.16658
431.713	10484.46956
431.927	10518.10775
432.14	10718.21015
432.354	10603.21581
432.567	10678.78876
432.781	10899.23253
432.994	11038.2772
433.207	11184.73791
433.421	11245.81598
433.634	11038.82908
433.848	11298.42806
434.061	10938.42581
434.274	10479.29732
434.488	10641.30782
434.701	10604.28109
434.914	10637.85757
435.127	11130.52729
435.341	11130.08622
435.554	11061.58501
435.767	11524.29336
435.98	11473.07099
436.194	10902.52624
436.407	10885.84325
436.62	12076.04961
436.833	11629.39663
437.046	11370.37643
437.259	11218.81498
437.473	11694.48216
437.686	11832.12044
437.899	11556.85729
438.112	11996.4286
438.325	11657.51027
438.538	11760.39264
438.751	12422.8185
438.964	11831.09353
439.177	12031.69372
439.39	12062.40751
439.603	12857.20358
439.816	12589.0992
440.029	13178.22096
440.242	13619.92939
440.455	13667.35227
440.668	13404.34997
440.881	12690.30424
441.094	12476.87951
441.306	13307.2056
441.519	14038.15641
441.732	13861.88072
441.945	13762.09471
442.158	13248.41652
442.37	13160.12882
442.583	14146.50915
442.796	14479.74129
443.009	14326.3835
443.222	13776.32202
443.434	13212.39289
443.647	14428.73015
443.86	15040.09889
444.072	15268.83263
444.285	14628.20643
444.498	14903.57249
444.71	14408.22287
444.923	14681.27797
445.136	14485.685
445.348	14234.18316
445.561	14202.40221
445.773	14459.16575
445.986	13563.83258
446.198	14777.39644
446.411	14905.10262
446.623	14996.43928
446.836	14914.17857
447.048	15241.95509
447.261	15678.27756
447.473	15702.66093
447.686	14900.18039
447.898	15211.89199
448.11	16093.36528
448.323	16447.88546
448.535	15992.61365
448.748	15091.25776
448.96	15421.22068
449.172	15487.62577
449.385	14778.85507
449.597	15672.10564
449.809	15804.84076
450.021	16186.44348
450.234	16253.07809
450.446	15251.71073
450.658	15400.17903
450.87	15591.56792
451.083	15941.52298
451.295	15865.68864
451.507	15867.07993
451.719	15733.72336
451.931	16141.06352
452.143	16092.63806
452.356	15836.05469
452.568	16021.09229
452.78	15930.26012
452.992	16441.99979
453.204	16623.73491
453.416	16207.57953
453.628	15449.38708
453.84	15819.5451
454.052	15753.17666
454.264	16541.63719
454.476	16301.02144
454.688	17136.78316
454.9	17452.25022
455.112	16255.90708
455.324	15879.02234
455.536	16448.24062
455.747	16855.09182
455.959	16858.55247
456.171	17130.97501
456.383	16580.43487
456.595	15971.54098
456.807	16171.37785
457.018	15867.66802
457.23	16703.16561
457.442	16394.69599
457.654	16756.54354
457.865	16540.77181
458.077	15973.34512
458.289	15914.24215
458.501	16325.9174
458.712	17127.38234
458.924	17739.52903
459.136	16754.27078
459.347	16271.81516
459.559	16384.72774
459.77	17234.29823
459.982	17419.39535
460.194	17290.78154
460.405	16432.03064
460.617	16577.294
460.828	17301.75782
461.04	17351.60795
461.251	16647.25968
461.463	18043.82878
461.674	17741.52561
461.886	17265.49028
462.097	16849.63214
462.309	17724.92584
462.52	16641.21111
462.731	18239.62251
462.943	17131.08945
463.154	16835.59168
463.366	16942.5577
463.577	17749.03021
463.788	18112.35262
464	18222.179
464.211	18377.33483
464.422	19326.36166
464.634	18913.74574
464.845	18644.01136
465.056	18981.92777
465.267	18711.51775
465.478	17908.72966
465.69	18864.0138
465.901	18524.66725
466.112	18716.71053
466.323	18949.46374
466.534	19348.42935
466.745	19293.21766
466.957	19411.15582
467.168	19245.70739
467.379	19154.54616
467.59	18585.87078
467.801	18278.17937
468.012	18927.25168
468.223	19297.01616
468.434	18796.35257
468.645	20089.97844
468.856	20194.84044
469.067	19627.29247
469.278	19745.14268
469.489	20037.63903
469.7	19031.11966
469.911	19186.24238
470.122	20609.94836
470.333	21124.38043
470.543	19783.95488
470.754	20408.23694
470.965	20515.98779
471.176	20689.45501
471.387	21434.58906
471.598	20606.98068
471.808	20217.31781
472.019	20665.16899
472.23	20989.16689
472.441	20130.1057
472.651	21014.7885
472.862	20664.6617
473.073	21611.60872
473.283	21183.13928
473.494	20665.7686
473.705	21042.58628
473.915	21342.3124
474.126	21987.76196
474.337	21777.34889
474.547	22252.05493
474.758	22622.30068
474.968	22412.16813
475.179	22450.38187
475.389	22137.21917
475.6	22608.38409
475.81	22839.31718
476.021	23255.13773
476.231	23297.61525
476.442	23196.7673
476.652	22620.96007
476.863	23016.77449
477.073	22807.87465
477.284	23532.08097
477.494	23583.43931
477.704	24663.24379
477.915	25184.63495
478.125	23760.74438
478.335	24486.17868
478.546	25216.3339
478.756	24910.13842
478.966	25394.20305
479.177	25220.48065
479.387	25549.76812
479.597	25626.48696
479.807	25779.80836
480.018	25564.82015
480.228	26030.80491
480.438	26042.08969
480.648	26626.05744
480.858	26707.87416
481.068	26085.34405
481.279	26747.1846
481.489	27845.78377
481.699	27402.16938
481.909	27157.69146
482.119	28931.60591
482.329	28523.18829
482.539	28361.40144
482.749	27950.54508
482.959	28626.87434
483.169	29372.02635
483.379	29234.20212
483.589	29656.75429
483.799	29440.999
484.009	29079.73912
484.219	29479.55966
484.429	29910.83425
484.639	29563.40616
484.849	29914.09677
485.059	30594.08184
485.268	30445.26537
485.478	31069.63832
485.688	30116.37613
485.898	30166.7194
486.108	30857.00877
486.317	31124.64971
486.527	31122.25936
486.737	31584.97385
486.947	31448.74319
487.156	32041.84095
487.366	31443.20792
487.576	30979.28385
487.785	31159.63323
487.995	31050.6032
488.205	31801.24956
488.414	31926.74683
488.624	31739.34444
488.834	31503.36869
489.043	31288.7323
489.253	31425.09755
489.462	31579.15024
489.672	32149.13548
489.882	32219.39546
490.091	32527.53764
490.301	32193.48981
490.51	32373.86284
490.72	32406.32052
490.929	32507.71777
491.138	32919.93063
491.348	32556.10383
491.557	32701.48398
491.767	33010.13604
491.976	32688.53245
492.185	32817.96641
492.395	32495.06019
492.604	32774.61292
492.813	32857.50126
493.023	33185.09127
493.232	33057.01719
493.441	32948.27482
493.651	33368.43032
493.86	32826.40213
494.069	33324.72019
494.278	33574.55345
494.488	33456.0992
494.697	33435.9038
494.906	33340.466
495.115	33737.03815
495.324	33613.32287
495.533	33883.87008
495.743	33937.67859
495.952	34215.54045
496.161	34130.77111
496.37	34301.68802
496.579	34401.73824
496.788	34456.25157
496.997	34684.75033
497.206	34483.15125
497.415	34502.69211
497.624	34589.81787
497.833	34686.46499
498.042	34777.00227
498.251	34824.26205
498.46	34879.9122
498.669	34864.88454
498.878	34870.37852
499.087	34814.37366
499.296	35025.21804
499.504	34992.74236
499.713	35040.74574
499.922	35096.83368
500.131	35049.56078
500.34	35133.94807
500.549	35136.32175
500.757	35093.26724
500.966	35223.51505
501.175	35138.50725
501.384	35249.23898
501.592	35123.22263
501.801	35262.09947
502.01	35183.50346
502.218	35176.54776
502.427	35272.62517
502.636	35183.30789
502.844	35231.72509
503.053	35217.86529
503.262	35221.56875
503.47	35240.58571
503.679	35182.22328
503.887	35144.50663
504.096	35137.02799
504.304	35150.45075
504.513	35197.83433
504.721	35162.57741
504.93	35149.64833
505.138	35137.38173
505.347	35165.6126
505.555	35149.67996
505.764	35184.27708
505.972	35169.86095
506.18	35043.61495
506.389	35173.21783
506.597	34919.14053
506.806	35180.59172
507.014	35123.23391
507.222	35035.85128
507.431	35018.49998
507.639	34989.49367
507.847	35101.35102
508.055	35114.86473
508.264	35086.1356
508.472	35117.17065
508.68	35096.00341
508.888	35193.03435
509.096	35163.59141
509.305	35175.97079
509.513	35136.62773
509.721	35089.13152
509.929	35110.33305
510.137	35165.02167
510.345	35140.29549
510.553	35140.17758
510.762	35140.4645
510.97	35108.02603
511.178	35075.79362
511.386	35221.05481
511.594	35160.3231
511.802	35257.41498
512.01	35221.85413
512.218	35273.22397
512.426	35230.07795
512.634	35289.80203
512.842	35261.79955
513.049	35248.96661
513.257	35231.47837
513.465	35284.96786
513.673	35220.27814
513.881	35310.91894
514.089	35295.93943
514.297	35264.83175
514.504	35297.77374
514.712	35286.37486
514.92	35261.45803
515.128	35386.84252
515.336	35236.18941
515.543	35303.08921
515.751	35243.83459
515.959	35272.37042
516.166	35220.54205
516.374	35239.22159
516.582	35200.69723
516.789	35177.47778
516.997	35180.35267
517.205	35131.88235
517.412	35146.11174
517.62	35143.73501
517.827	35084.64934
518.035	35014.2397
518.243	34998.71192
518.45	34919.67198
518.658	34818.65485
518.865	34771.38482
519.073	34741.06419
519.28	34694.60604
519.488	34722.4082
519.695	34571.64271
519.902	34571.7611
520.11	34590.43081
520.317	34681.41564
520.525	34507.38175
520.732	34372.15938
520.939	34482.79068
521.147	34216.00574
521.354	34442.1099
521.561	34279.29649
521.769	34433.27181
521.976	34106.83422
522.183	34362.1219
522.391	34005.72538
522.598	34201.19512
522.805	34084.30588
523.012	34166.74034
523.219	34172.4906
523.427	34253.34843
523.634	34231.61776
523.841	34205.51904
524.048	34183.17892
524.255	34283.16106
524.462	34074.90127
524.669	33993.05227
524.877	34255.9334
525.084	33952.35048
525.291	33902.18984
525.498	34139.8044
525.705	34146.31816
525.912	34343.35817
526.119	34185.67527
526.326	34253.76269
526.533	34337.30721
526.74	34491.04556
526.947	34284.82011
527.153	34430.94789
527.36	34471.32995
527.567	34433.32109
527.774	34368.37653
527.981	34235.9155
528.188	34269.25914
528.395	34410.57676
528.602	34305.00107
528.808	34347.33735
529.015	34314.4949
529.222	34358.32202
529.429	34165.5056
529.635	34466.04377
529.842	34364.55639
530.049	34235.65847
530.256	34365.75775
530.462	34457.08999
530.669	34470.98388
530.876	34372.10527
531.082	34413.30391
531.289	34339.44605
531.495	34401.96692
531.702	34475.96475
531.909	34426.01957
532.115	34515.39568
532.322	34398.40539
532.528	34354.52344
532.735	34430.23324
532.941	34467.95521
533.148	34308.62343
533.354	34467.61819
533.561	34406.28069
533.767	34332.78956
533.974	34178.8406
534.18	34361.41354
534.387	34217.0291
534.593	34225.92421
534.799	34096.68672
535.006	34314.98151
535.212	34121.79376
535.418	34169.70155
535.625	34256.01039
535.831	34228.73075
536.037	34158.18152
536.244	34073.59367
536.45	33824.9347
536.656	34054.56364
536.862	34119.02189
537.068	34129.95404
537.275	34241.65123
537.481	34257.85948
537.687	34279.23337
537.893	34377.77659
538.099	34193.62224
538.305	34128.38245
538.512	34184.54515
538.718	34142.21584
538.924	34119.53843
539.13	33895.55085
539.336	34236.68444
539.542	34067.6627
539.748	34155.98646
539.954	33953.41125
540.16	34054.66476
540.366	33976.37727
540.572	34047.96024
540.778	33909.38023
540.984	33751.41134
541.19	33936.35911
541.396	33759.84909
541.602	33827.24485
541.807	33815.59176
542.013	33922.55302
542.219	33655.30707
542.425	33718.25675
542.631	33501.08147
542.837	33538.2701
543.042	33465.55163
543.248	33491.27858
543.454	33384.29504
543.66	33562.09075
543.865	33295.41167
544.071	33426.98196
544.277	33128.52931
544.483	33297.50239
544.688	33120.38867
544.894	33400.76941
545.1	33410.60935
545.305	33151.02594
545.511	33273.43009
545.716	33148.64651
545.922	32950.81833
546.128	33047.26077
546.333	32865.90873
546.539	33221.21535
546.744	33019.04435
546.95	32866.73241
547.155	32980.55899
547.361	33025.13109
547.566	32504.72777
547.772	32786.29344
547.977	32748.61439
548.182	32712.66892
548.388	32815.9944
548.593	32859.71421
548.799	32640.54289
549.004	32724.72066
549.209	32606.58161
549.415	32950.20821
549.62	32639.12571
549.825	32757.23668
550.031	32462.38827
550.236	32727.14288
550.441	32580.63037
550.646	32607.6561
550.852	32744.62499
551.057	32414.01203
551.262	32707.43805
551.467	32665.0923
551.672	32448.98218
551.878	32777.89271
552.083	32280.66251
552.288	32667.42236
552.493	32449.65956
552.698	32284.14817
552.903	32433.4289
553.108	32576.0044
553.313	32398.10813
553.518	32311.23674
553.723	32369.79199
553.928	32382.18669
554.133	32299.09359
554.338	32492.35996
554.543	32179.0328
554.748	32337.0698
554.953	32489.30093
555.158	32365.12324
555.363	32296.80333
555.568	32083.91056
555.773	32436.04589
555.978	32379.00257
556.182	32083.06069
556.387	32131.92634
556.592	32132.47144
556.797	32308.33837
557.002	32304.93406
557.206	32190.78611
557.411	32099.68301
557.616	31934.63588
557.821	32287.61921
558.025	32003.93307
558.23	32088.78948
558.435	32245.57366
558.64	31872.55548
558.844	32003.83269
559.049	31876.97917
