Data from 3_57 pm cloudy_Subt2__9__16-00-08-528.txt Node

Date: Tue Oct 07 16:00:08 EDT 2025
User: brett
Spectrometer: USB4F03499
Trigger mode: 4
Integration Time (sec): 1.000000E-2
Scans to average: 10
Electric dark correction enabled: true
Nonlinearity correction enabled: true
Boxcar width: 0
XAxis mode: Wavelengths
Number of Pixels in Spectrum: 3648
>>>>>Begin Spectral Data<<<<<
345.386	-4.57091
345.605	-4.57091
345.824	-4.57091
346.044	1.25022
346.263	-13.19193
346.482	-5.68846
346.701	-6.58298
346.92	7.29508
347.139	10.87406
347.358	-6.13603
347.577	21.61772
347.796	-12.07114
348.015	-2.44334
348.234	-11.3983
348.453	14.79468
348.672	-12.40375
348.891	2.14507
349.11	-8.37338
349.329	141.93511
349.548	193.88009
349.767	198.84397
349.986	208.39754
350.205	211.64738
350.424	203.15636
350.643	216.71896
350.862	200.58567
351.08	207.26467
351.299	216.41302
351.518	203.10824
351.737	215.47712
351.956	203.064
352.174	216.02217
352.393	217.78929
352.612	222.29725
352.831	207.87161
353.049	235.95078
353.268	230.47458
353.487	209.98601
353.705	228.45479
353.924	238.02694
354.143	225.05441
354.361	228.23266
354.58	228.7374
354.798	230.02256
355.017	237.85355
355.236	228.89474
355.454	226.96076
355.673	244.56738
355.891	254.65802
356.11	243.99863
356.328	240.56989
356.547	250.09862
356.765	248.98227
356.984	252.28515
357.202	254.6147
357.42	262.38059
357.639	252.36406
357.857	242.28546
358.076	261.29392
358.294	248.18961
358.512	274.46139
358.731	255.86717
358.949	272.65607
359.167	259.37266
359.386	274.72132
359.604	261.96246
359.822	267.8674
360.04	292.23057
360.259	278.15684
360.477	281.30086
360.695	268.08525
360.913	281.42329
361.131	266.40511
361.35	282.41386
361.568	283.28924
361.786	277.92451
362.004	283.63655
362.222	270.44075
362.44	273.01008
362.658	276.94213
362.876	292.6638
363.094	265.35765
363.312	278.77408
363.53	272.52799
363.749	288.4039
363.967	272.33974
364.184	274.23072
364.402	278.84059
364.62	285.1028
364.838	271.39749
365.056	274.0294
365.274	310.55602
365.492	291.16571
365.71	285.92443
365.928	297.69241
366.146	276.50542
366.364	304.18119
366.581	307.6937
366.799	319.74268
367.017	302.66342
367.235	327.80606
367.453	319.18424
367.67	339.97217
367.888	323.54023
368.106	339.90939
368.323	337.00136
368.541	331.49846
368.759	357.77749
368.977	368.15232
369.194	359.35001
369.412	374.41988
369.629	366.47644
369.847	375.08292
370.065	384.30402
370.282	381.21548
370.5	389.30887
370.717	389.9272
370.935	395.28335
371.152	398.01122
371.37	408.10863
371.588	408.99263
371.805	428.7107
372.022	427.3882
372.24	429.11748
372.457	434.4721
372.675	432.27494
372.892	438.83608
373.11	437.47295
373.327	441.47397
373.544	425.76356
373.762	456.27484
373.979	446.90157
374.196	441.04917
374.414	435.7257
374.631	461.94421
374.848	455.88059
375.066	435.46518
375.283	448.08933
375.5	458.1607
375.717	441.1902
375.935	469.32064
376.152	470.18844
376.369	468.33966
376.586	450.25857
376.803	453.35522
377.02	447.07956
377.238	460.85258
377.455	455.87392
377.672	463.4095
377.889	448.39551
378.106	447.64826
378.323	464.8715
378.54	471.85694
378.757	471.08739
378.974	460.58332
379.191	470.2575
379.408	488.69423
379.625	476.32453
379.842	491.3056
380.059	472.27716
380.276	483.50093
380.493	471.90368
380.71	481.10512
380.927	487.52312
381.143	479.43027
381.36	499.52734
381.577	498.97679
381.794	496.11716
382.011	503.96991
382.228	500.90579
382.444	526.62392
382.661	498.07711
382.878	504.8669
383.095	520.07906
383.311	507.26356
383.528	517.63189
383.745	517.54534
383.962	523.60942
384.178	533.67907
384.395	533.97893
384.612	549.09453
384.828	534.16109
385.045	540.84303
385.261	559.3614
385.478	550.6994
385.695	526.08168
385.911	548.45086
386.128	558.2005
386.344	557.45815
386.561	539.03426
386.777	562.19379
386.994	562.16325
387.21	540.2468
387.427	564.29233
387.643	552.03847
387.86	552.76807
388.076	520.69789
388.292	536.76372
388.509	535.91308
388.725	547.28998
388.942	577.45814
389.158	545.66478
389.374	559.35886
389.591	564.2213
389.807	533.47656
390.023	587.41842
390.239	562.72285
390.456	573.68474
390.672	584.6437
390.888	557.58549
391.104	585.84256
391.321	587.06563
391.537	591.69961
391.753	583.73945
391.969	611.9058
392.185	617.71169
392.401	620.6038
392.618	603.38211
392.834	609.21152
393.05	661.53516
393.266	633.45876
393.482	655.08882
393.698	634.73812
393.914	643.82097
394.13	666.86985
394.346	688.73124
394.562	658.29787
394.778	652.80821
394.994	677.25443
395.21	694.46202
395.426	694.49253
395.642	707.70988
395.858	721.65399
396.073	721.67712
396.289	712.69332
396.505	749.54751
396.721	729.83162
396.937	760.42606
397.153	747.99635
397.369	749.04179
397.584	783.43402
397.8	774.63521
398.016	766.8408
398.232	799.8027
398.447	790.54599
398.663	806.99227
398.879	795.06428
399.094	815.74567
399.31	815.20628
399.526	804.14038
399.741	840.11736
399.957	836.41254
400.173	837.48171
400.388	856.77968
400.604	855.44866
400.82	884.41409
401.035	905.16159
401.251	918.40808
401.466	908.48901
401.682	923.20521
401.897	978.9817
402.113	970.88902
402.328	990.88711
402.544	1010.04895
402.759	1014.73618
402.974	1072.18211
403.19	1065.5162
403.405	1139.78026
403.621	1182.5744
403.836	1180.71211
404.051	1239.58276
404.267	1260.32563
404.482	1256.66019
404.697	1259.16477
404.913	1289.47034
405.128	1376.31039
405.343	1337.52786
405.559	1348.31257
405.774	1394.40975
405.989	1450.45382
406.204	1480.12516
406.42	1501.02236
406.635	1518.05377
406.85	1513.32382
407.065	1565.82801
407.28	1599.24101
407.495	1606.52356
407.71	1596.3439
407.926	1642.41732
408.141	1759.7448
408.356	1750.11447
408.571	1710.03803
408.786	1727.12442
409.001	1739.84107
409.216	1825.93648
409.431	1822.89399
409.646	1818.24846
409.861	1798.65368
410.076	1810.16051
410.291	1838.51815
410.506	1880.19821
410.721	1872.03764
410.936	1885.92315
411.15	1887.14939
411.365	1916.26253
411.58	1951.08424
411.795	1947.51234
412.01	2028.06478
412.225	1973.89245
412.439	1940.05906
412.654	2001.65722
412.869	1989.39961
413.084	1994.07729
413.299	2067.91905
413.513	1971.8732
413.728	2031.69159
413.943	2093.21786
414.157	2100.75767
414.372	2118.44914
414.587	2149.25779
414.801	2216.08631
415.016	2205.31582
415.231	2221.55257
415.445	2220.68552
415.66	2235.95674
415.874	2294.69342
416.089	2245.54749
416.304	2366.3127
416.518	2333.61504
416.733	2353.413
416.947	2308.41031
417.162	2337.38471
417.376	2419.20367
417.59	2439.55305
417.805	2495.63693
418.019	2414.10436
418.234	2439.92851
418.448	2367.98413
418.663	2460.59135
418.877	2459.3901
419.091	2481.77636
419.306	2484.78028
419.52	2519.30335
419.734	2479.53977
419.949	2596.61934
420.163	2619.31116
420.377	2544.1986
420.591	2556.18888
420.806	2606.57801
421.02	2565.48016
421.234	2666.667
421.448	2640.60811
421.663	2620.13127
421.877	2609.64345
422.091	2575.19044
422.305	2608.39351
422.519	2614.90478
422.733	2744.46432
422.947	2614.66892
423.161	2621.81448
423.376	2646.32753
423.59	2705.30175
423.804	2704.88446
424.018	2707.96853
424.232	2679.04911
424.446	2823.65806
424.66	2767.54046
424.874	2747.61304
425.088	2665.83322
425.302	2695.12473
425.515	2833.48273
425.729	2840.33098
425.943	2826.32889
426.157	2845.79806
426.371	2791.67935
426.585	2833.29988
426.799	2856.21509
427.013	2983.50404
427.226	2951.84564
427.44	2829.98456
427.654	2827.7087
427.868	2846.20064
428.081	2872.36715
428.295	2855.53931
428.509	2902.06265
428.723	2845.35598
428.936	2865.14964
429.15	2786.07133
429.364	2899.82656
429.577	2757.53139
429.791	2828.31288
430.005	2968.17653
430.218	2910.22916
430.432	2795.09124
430.645	2830.45033
430.859	2848.03667
431.073	2882.22378
431.286	2949.73501
431.5	2979.86658
431.713	2827.381
431.927	2803.63671
432.14	2895.89847
432.354	2846.35671
432.567	2869.87802
432.781	2939.76087
432.994	2940.60904
433.207	3018.71165
433.421	2992.94784
433.634	2985.83711
433.848	3013.93847
434.061	2944.24916
434.274	2830.54264
434.488	2910.71392
434.701	2824.23752
434.914	2929.78004
435.127	2991.09235
435.341	3007.11498
435.554	2974.12352
435.767	3141.96057
435.98	3100.05759
436.194	2954.15593
436.407	2986.04471
436.62	3241.29289
436.833	3184.05203
437.046	3147.86946
437.259	3030.40306
437.473	3150.35428
437.686	3214.11023
437.899	3108.53721
438.112	3234.71971
438.325	3148.5688
438.538	3192.31028
438.751	3419.61095
438.964	3261.29006
439.177	3275.52326
439.39	3290.5751
439.603	3523.62273
439.816	3393.21367
440.029	3555.1074
440.242	3635.40324
440.455	3741.63936
440.668	3634.07311
440.881	3520.97786
441.094	3445.96376
441.306	3620.50663
441.519	3820.44071
441.732	3818.65444
441.945	3841.57435
442.158	3681.2682
442.37	3621.60064
442.583	3908.26784
442.796	3999.65952
443.009	3988.04077
443.222	3783.03022
443.434	3674.30564
443.647	4013.57201
443.86	4149.59992
444.072	4196.23095
444.285	4109.59101
444.498	4198.94676
444.71	4044.65399
444.923	4133.41919
445.136	4062.51509
445.348	3972.5476
445.561	4041.1866
445.773	4063.73391
445.986	3880.79989
446.198	4205.34662
446.411	4214.19426
446.623	4343.80413
446.836	4278.61048
447.048	4304.2521
447.261	4449.12614
447.473	4456.13566
447.686	4290.32803
447.898	4339.70266
448.11	4581.12631
448.323	4629.85652
448.535	4555.2538
448.748	4314.29917
448.96	4412.95539
449.172	4395.85545
449.385	4245.15447
449.597	4494.78381
449.809	4532.83876
450.021	4642.81735
450.234	4728.58785
450.446	4456.43574
450.658	4500.18063
450.87	4538.77395
451.083	4646.4324
451.295	4672.32331
451.507	4642.4913
451.719	4581.5052
451.931	4737.15271
452.143	4714.30947
452.356	4645.57157
452.568	4732.63035
452.78	4764.61092
452.992	4809.73617
453.204	4980.09839
453.416	4791.01678
453.628	4606.95986
453.84	4690.79839
454.052	4739.17643
454.264	4913.96937
454.476	4882.43256
454.688	5137.05627
454.9	5138.04213
455.112	4851.89725
455.324	4772.36344
455.536	4966.0372
455.747	5084.72281
455.959	5046.20623
456.171	5120.28847
456.383	4988.74644
456.595	4850.2965
456.807	4905.85452
457.018	4860.91168
457.23	5094.1804
457.442	4978.56141
457.654	5121.48636
457.865	5029.24569
458.077	4905.97724
458.289	4955.87941
458.501	5018.01911
458.712	5260.25085
458.924	5418.56493
459.136	5142.19619
459.347	5058.06928
459.559	5078.83525
459.77	5345.52527
459.982	5416.25444
460.194	5378.59513
460.405	5139.32546
460.617	5161.93549
460.828	5385.64037
461.04	5352.73501
461.251	5256.41321
461.463	5654.54901
461.674	5581.0368
461.886	5479.42203
462.097	5340.34778
462.309	5494.24015
462.52	5308.86313
462.731	5728.79283
462.943	5341.69377
463.154	5264.17949
463.366	5362.74637
463.577	5542.29537
463.788	5756.90604
464	5755.41048
464.211	5752.10811
464.422	6059.17738
464.634	5930.41899
464.845	5916.71149
465.056	6044.29526
465.267	5959.53077
465.478	5703.52508
465.69	5945.70195
465.901	5938.84063
466.112	5992.76118
466.323	6021.15107
466.534	6219.33323
466.745	6209.33836
466.957	6234.84927
467.168	6128.98757
467.379	6193.75405
467.59	5991.24083
467.801	5872.51097
468.012	6149.94182
468.223	6231.99737
468.434	6114.82341
468.645	6466.28665
468.856	6635.63451
469.067	6439.52494
469.278	6440.16109
469.489	6553.38892
469.7	6293.50272
469.911	6221.33937
470.122	6721.32092
470.333	6858.15362
470.543	6496.9493
470.754	6682.33002
470.965	6714.6236
471.176	6711.104
471.387	7003.80198
471.598	6825.92372
471.808	6726.74638
472.019	6891.51391
472.23	6867.79156
472.441	6737.78053
472.651	6921.80346
472.862	6839.8789
473.073	7166.54416
473.283	6992.86115
473.494	6959.72909
473.705	7008.14555
473.915	7045.80944
474.126	7310.21486
474.337	7277.8799
474.547	7444.37263
474.758	7553.31992
474.968	7459.05327
475.179	7535.5348
475.389	7418.57189
475.6	7597.45804
475.81	7631.95061
476.021	7835.56144
476.231	7890.9456
476.442	7799.64162
476.652	7610.32735
476.863	7782.37105
477.073	7706.39069
477.284	7960.12993
477.494	7960.22217
477.704	8381.49653
477.915	8509.49026
478.125	8078.50004
478.335	8256.41121
478.546	8593.11476
478.756	8419.72081
478.966	8665.11813
479.177	8672.77656
479.387	8821.74023
479.597	8779.6322
479.807	8788.01825
480.018	8740.97112
480.228	8963.11179
480.438	9006.62243
480.648	9159.86604
480.858	9162.37708
481.068	8949.35576
481.279	9186.24827
481.489	9656.09888
481.699	9546.65052
481.909	9439.05941
482.119	9996.15332
482.329	9982.60301
482.539	9945.89631
482.749	9777.06959
482.959	10034.25992
483.169	10356.2535
483.379	10277.2399
483.589	10481.98882
483.799	10335.11015
484.009	10259.8368
484.219	10394.61314
484.429	10635.92183
484.639	10434.30184
484.849	10729.46129
485.059	10870.30142
485.268	10956.93283
485.478	11073.93671
485.688	10741.67357
485.898	10840.33079
486.108	11057.91564
486.317	11198.89912
486.527	11313.99678
486.737	11526.61394
486.947	11494.84114
487.156	11637.869
487.366	11570.15024
487.576	11323.54447
487.785	11415.60578
487.995	11439.04116
488.205	11685.13862
488.414	11725.84676
488.624	11703.10497
488.834	11745.17632
489.043	11623.79072
489.253	11539.10348
489.462	11845.95605
489.672	12058.8
489.882	12104.96441
490.091	12240.49968
490.301	12090.00647
490.51	12214.71121
490.72	12297.38294
490.929	12424.62061
491.138	12557.8367
491.348	12391.80623
491.557	12421.83769
491.767	12572.79828
491.976	12555.57708
492.185	12552.21655
492.395	12548.72013
492.604	12712.95976
492.813	12712.41772
493.023	12923.80319
493.232	12873.12738
493.441	12763.30645
493.651	13070.83059
493.86	12787.33814
494.069	13040.00542
494.278	13064.81365
494.488	13131.96084
494.697	13213.66682
494.906	13081.58757
495.115	13332.69045
495.324	13206.8972
495.533	13437.98335
495.743	13570.12158
495.952	13769.11222
496.161	13658.20403
496.37	13794.95397
496.579	13909.56178
496.788	13951.25803
496.997	14120.3578
497.206	13981.57533
497.415	14085.19098
497.624	14118.3729
497.833	14310.82309
498.042	14360.27797
498.251	14490.06933
498.46	14570.15695
498.669	14511.70333
498.878	14452.90922
499.087	14499.94674
499.296	14887.97551
499.504	14817.08847
499.713	14759.11251
499.922	14841.78852
500.131	14918.22658
500.34	15004.60638
500.549	15129.75865
500.757	14820.90617
500.966	15122.56468
501.175	15020.50545
501.384	15241.79835
501.592	15116.52112
501.801	15171.13699
502.01	15223.32407
502.218	15198.90535
502.427	15341.45466
502.636	15243.35338
502.844	15385.679
503.053	15300.3242
503.262	15324.86601
503.47	15342.98084
503.679	15362.05843
503.887	15383.76351
504.096	15423.75333
504.304	15416.96425
504.513	15525.17959
504.721	15416.6498
504.93	15456.49283
505.138	15565.99703
505.347	15518.89426
505.555	15500.24419
505.764	15576.64434
505.972	15614.97561
506.18	15502.00193
506.389	15496.42479
506.597	15449.42837
506.806	15618.53831
507.014	15708.58804
507.222	15585.79407
507.431	15605.5851
507.639	15488.524
507.847	15756.00994
508.055	15709.09401
508.264	15702.61067
508.472	15797.53726
508.68	15696.76284
508.888	15873.00136
509.096	15840.74264
509.305	15855.13922
509.513	15793.27027
509.721	15857.34708
509.929	15887.10205
510.137	15889.95026
510.345	15975.48897
510.553	15871.41451
510.762	15943.38263
510.97	15878.34783
511.178	16029.00794
511.386	16194.40723
511.594	16071.21986
511.802	16156.12831
512.01	16131.06365
512.218	16174.99432
512.426	16354.33164
512.634	16297.42668
512.842	16333.7966
513.049	16332.62268
513.257	16327.48186
513.465	16467.59248
513.673	16531.85822
513.881	16487.60826
514.089	16509.24455
514.297	16544.8745
514.504	16566.77571
514.712	16652.20682
514.92	16773.89524
515.128	16867.52689
515.336	16770.72321
515.543	16706.41066
515.751	16798.8829
515.959	16702.10583
516.166	16607.70405
516.374	16794.04777
516.582	16860.70825
516.789	16820.06479
516.997	16803.04061
517.205	16720.51028
517.412	16793.6263
517.62	16904.84711
517.827	16845.03177
518.035	16844.66494
518.243	16790.72384
518.45	16688.51204
518.658	16654.83087
518.865	16670.67314
519.073	16733.86571
519.28	16613.90331
519.488	16614.66567
519.695	16579.75488
519.902	16589.20793
520.11	16583.51304
520.317	16765.30817
520.525	16635.22465
520.732	16470.81888
520.939	16614.92712
521.147	16392.18732
521.354	16530.51136
521.561	16562.53631
521.769	16577.17221
521.976	16408.7717
522.183	16649.24086
522.391	16466.58536
522.598	16613.53305
522.805	16571.90261
523.012	16568.16801
523.219	16601.15891
523.427	16662.88786
523.634	16718.04623
523.841	16686.66399
524.048	16620.20783
524.255	16794.02416
524.462	16794.52415
524.669	16657.19722
524.877	16831.42876
525.084	16704.50226
525.291	16790.74703
525.498	16827.43292
525.705	16907.62575
525.912	17043.51391
526.119	16916.48757
526.326	16946.00243
526.533	16980.21439
526.74	17131.89205
526.947	17076.7887
527.153	17111.05246
527.36	17162.47838
527.567	17138.03613
527.774	17196.09662
527.981	17190.16419
528.188	17117.74886
528.395	17304.6503
528.602	17232.72133
528.808	17257.11246
529.015	17225.87946
529.222	17385.22685
529.429	17244.34871
529.635	17385.27754
529.842	17407.54646
530.049	17319.27601
530.256	17327.69035
530.462	17513.04611
530.669	17474.90791
530.876	17490.55394
531.082	17498.68673
531.289	17524.62314
531.495	17584.7454
531.702	17654.8772
531.909	17555.91021
532.115	17837.24839
532.322	17559.28658
532.528	17632.39973
532.735	17714.76514
532.941	17714.494
533.148	17637.88853
533.354	17676.4182
533.561	17865.98034
533.767	17693.81778
533.974	17682.86017
534.18	17836.96438
534.387	17701.07229
534.593	17739.97941
534.799	17758.86273
535.006	17799.70918
535.212	17773.53441
535.418	17820.04718
535.625	17854.93285
535.831	17814.06396
536.037	17763.7777
536.244	17765.71951
536.45	17568.88273
536.656	17753.73843
536.862	17868.48002
537.068	17877.12209
537.275	17843.124
537.481	17948.03779
537.687	18004.87735
537.893	18077.43457
538.099	18039.67915
538.305	17994.06406
538.512	18038.7181
538.718	17921.49632
538.924	17983.71063
539.13	17940.20431
539.336	18039.19794
539.542	17973.21751
539.748	18142.06477
539.954	17981.83153
540.16	18147.5421
540.366	18142.3032
540.572	18090.94075
540.778	18029.76408
540.984	18044.2461
541.19	18021.03263
541.396	17952.68455
541.602	18119.5501
541.807	17945.01231
542.013	18032.61195
542.219	17877.14684
542.425	17917.52136
542.631	17888.58783
542.837	17834.57979
543.042	17928.94013
543.248	17870.88424
543.454	17821.31151
543.66	17854.8238
543.865	17687.8385
544.071	17838.62956
544.277	17795.06937
544.483	17758.52549
544.688	17751.81559
544.894	17820.26784
545.1	17898.47409
545.305	17714.44272
545.511	17838.86685
545.716	17808.84118
545.922	17688.71732
546.128	17740.91374
546.333	17708.91144
546.539	17830.09153
546.744	17705.92102
546.95	17783.10878
547.155	17700.09214
547.361	17803.91698
547.566	17611.39593
547.772	17726.10041
547.977	17693.08649
548.182	17615.04417
548.388	17741.22179
548.593	17720.37877
548.799	17601.74636
549.004	17609.45666
549.209	17679.06112
549.415	17769.74458
549.62	17631.62541
549.825	17658.38993
550.031	17554.80016
550.236	17746.93128
550.441	17832.07199
550.646	17764.66618
550.852	17850.12807
551.057	17634.05305
551.262	17836.41375
551.467	17820.23265
551.672	17740.55186
551.878	17830.91868
552.083	17713.54626
552.288	17791.69714
552.493	17730.78066
552.698	17805.45215
552.903	17800.57874
553.108	17926.58782
553.313	17878.64543
553.518	17750.19963
553.723	17853.82298
553.928	17957.89652
554.133	17909.73019
554.338	17972.18045
554.543	17998.12259
554.748	17893.26638
554.953	18013.4451
555.158	17940.80017
555.363	18006.52494
555.568	17821.05479
555.773	18124.41588
555.978	18042.85232
556.182	17947.57325
556.387	17903.60303
556.592	17915.73949
556.797	18051.35747
557.002	18031.28231
557.206	17982.14059
557.411	18052.72753
557.616	17909.09894
557.821	18130.08353
558.025	18029.38278
558.23	18043.13401
558.435	18045.73402
558.64	18061.90956
558.844	18053.00125
559.049	17981.19371
559.253	18066.3664
559.458	18004.47556
559.663	18046.62244
559.867	17975.98352
560.072	17897.73531
560.276	17947.53858
560.481	17947.627
560.685	17950.95971
560.89	17855.32221
561.094	17951.35195
561.299	17804.17652
561.503	17663.431
561.708	17881.97397
561.912	17782.79827
562.117	17807.77398
562.321	17706.07061
562.525	17823.9478
562.73	17840.32956
562.934	17762.82197
563.139	17696.66849
563.343	17846.65453
563.547	17687.26319
563.752	17761.57696
563.956	17716.12139
564.16	17722.55839
564.364	17652.32022
564.569	17695.28148
564.773	17694.73513
564.977	17584.31786
