Data from Sun spf1000_Subt2__1__10-07-46-261.txt Node

Date: Tue Sep 23 10:07:46 EDT 2025
User: brett
Spectrometer: USB4F03499
Trigger mode: 4
Integration Time (sec): 1.000000E-1
Scans to average: 1
Electric dark correction enabled: true
Nonlinearity correction enabled: true
Boxcar width: 0
XAxis mode: Wavelengths
Number of Pixels in Spectrum: 3648
>>>>>Begin Spectral Data<<<<<
0	2.49989
0.225	2.49989
0.449	2.49989
0.674	-75.90871
0.898	-50.53139
1.123	57.35434
1.347	-38.76843
1.572	-27.34534
1.796	55.29071
2.021	46.02378
2.245	55.01887
2.469	-34.22543
2.694	-41.01038
2.918	-8.98407
3.143	-91.74347
3.367	23.09287
3.591	4.77952
3.815	43.71327
4.04	813.96357
4.264	1174.12019
4.488	1047.40311
4.712	1001.42162
4.936	971.46654
5.161	1097.79885
5.385	1083.07975
5.609	1092.32542
5.833	1090.27466
6.057	1212.87372
6.281	1045.84747
6.505	1129.01777
6.729	1056.93852
6.953	1161.90139
7.177	1060.62807
7.401	1121.03442
7.625	1018.42788
7.849	1137.31914
8.073	1133.60757
8.297	1092.09602
8.521	978.05622
8.744	1100.51818
8.968	1229.85656
9.192	1156.73085
9.416	1142.02816
9.64	1051.69642
9.863	1082.69594
10.087	1146.73575
10.311	1009.04591
10.535	1002.19131
10.758	1025.43933
10.982	1143.48029
11.205	981.94774
11.429	1056.93741
11.653	1054.34908
11.876	1010.70921
12.1	1164.28186
12.323	1150.08352
12.547	1026.45747
12.77	1087.13289
12.994	1071.25754
13.217	1108.68415
13.441	1108.76214
13.664	1219.98562
13.887	1080.09522
14.111	1183.03809
14.334	967.14712
14.557	963.33141
14.781	1208.54428
15.004	1021.93409
15.227	1013.70586
15.451	1153.78296
15.674	1077.2264
15.897	1031.44003
16.12	1238.15433
16.343	1143.40051
16.567	1202.37195
16.79	1088.65925
17.013	1228.09064
17.236	1132.57409
17.459	1111.94684
17.682	1116.76345
17.905	1173.87223
18.128	1180.34682
18.351	1152.00846
18.574	1168.32147
18.797	1188.36606
19.02	1125.2255
19.243	1262.39301
19.466	1212.54068
19.689	1208.51156
19.911	1255.59269
20.134	1163.04885
20.357	1228.73544
20.58	1207.17004
20.803	1250.45324
21.025	1195.88019
21.248	1159.12652
21.471	1234.16843
21.694	1272.82669
21.916	1251.90746
22.139	1281.48491
22.362	1148.2258
22.584	1272.19739
22.807	1250.78762
23.029	1074.14684
23.252	1142.36745
23.475	1418.25217
23.697	1351.64594
23.92	1221.6
24.142	1191.21641
24.365	1157.59873
24.587	1259.95061
24.809	1330.24852
25.032	1224.60122
25.254	1242.81253
25.477	1329.6851
25.699	1167.56667
25.921	1237.89843
26.144	1207.63261
26.366	1183.14123
26.588	1325.12683
26.81	1334.82491
27.033	1296.00659
27.255	1215.37491
27.477	1288.77544
27.699	1363.97812
27.921	1298.47803
28.144	1330.24852
28.366	1223.81878
28.588	1359.10817
28.81	1397.91018
29.032	1376.33004
29.254	1392.55752
29.476	1342.99085
29.698	1465.00903
29.92	1502.0777
30.142	1595.37606
30.364	1493.91503
30.586	1674.82697
30.808	1641.84832
31.029	1613.95164
31.251	1693.91667
31.473	1562.44417
31.695	1688.21292
31.917	1628.84652
32.139	1847.75125
32.36	1795.81744
32.582	1817.73315
32.804	1906.41941
33.026	2032.661
33.247	1951.71582
33.469	2063.12855
33.691	2005.95289
33.912	2136.61816
34.134	2037.1193
34.355	2314.63062
34.577	2457.08324
34.798	2267.54869
35.02	2426.2438
35.242	2513.27362
35.463	2638.06635
35.684	2749.51655
35.906	3018.15919
36.127	3053.0433
36.349	3048.26916
36.57	3131.03847
36.792	3338.94754
37.013	3298.86818
37.234	3458.11273
37.456	3472.68606
37.677	3883.88994
37.898	3912.03773
38.119	4010.5403
38.341	4078.36649
38.562	4239.33574
38.783	4525.43315
39.004	4618.30533
39.225	4774.48535
39.447	4920.21648
39.668	5138.19978
39.889	5327.72305
40.11	5580.6848
40.331	5521.07053
40.552	5939.46446
40.773	6157.66226
40.994	6145.36141
41.215	6362.56449
41.436	6876.92868
41.657	6904.66156
41.878	7261.00937
42.099	7549.73479
42.32	7818.56387
42.54	8098.98972
42.761	8526.69461
42.982	8914.28646
43.203	8974.74015
43.424	9568.39189
43.645	9579.71616
43.865	9981.09761
44.086	10178.12688
44.307	10534.45383
44.527	10963.92065
44.748	11285.07555
44.969	11522.08224
45.189	11684.87002
45.41	11722.15877
45.631	12482.71272
45.851	12603.33118
46.072	12757.48227
46.292	13065.75456
46.513	13294.08159
46.733	13801.37431
46.954	14165.5214
47.174	14880.02625
47.395	14860.02698
47.615	15566.14118
47.836	15557.25325
48.056	16292.33339
48.276	15835.84701
48.497	15975.84017
48.717	16654.65704
48.937	16710.72848
49.158	17247.46296
49.378	16961.47606
49.598	17311.14704
49.818	17824.09278
50.038	17477.86493
50.259	18007.34856
50.479	18005.56581
50.699	18405.04544
50.919	18761.70156
51.139	18818.47127
51.359	18876.42663
51.579	19357.70288
51.799	18671.2391
52.02	18870.60015
52.24	18566.00603
52.46	18487.53342
52.68	18467.0688
52.899	17162.83784
53.119	17275.19525
53.339	17638.81026
53.559	16797.95491
53.779	16770.51551
53.999	16750.57797
54.219	16364.56092
54.439	16082.3633
54.658	15809.2572
54.878	15544.65653
55.098	15104.38537
55.318	14072.69214
55.538	14059.35943
55.757	13736.2519
55.977	12716.88011
56.197	12168.14055
56.416	11620.79761
56.636	11155.18005
56.855	11119.70194
57.075	10362.17004
57.295	9569.89639
57.514	9863.15112
57.734	9262.05653
57.953	8884.83119
58.173	8504.32203
58.392	7953.01391
58.612	7393.3226
58.831	6833.72703
59.051	6305.7712
59.27	5955.85129
59.489	5300.85179
59.709	4997.65654
59.928	4381.10731
60.147	4163.34874
60.367	3835.82496
60.586	3460.07359
60.805	3252.06248
61.024	3066.65351
61.244	3094.01174
61.463	2834.17552
61.682	2740.99531
61.901	2648.51844
62.12	2599.02664
62.34	2564.46981
62.559	2472.73287
62.778	2671.68225
62.997	2692.22829
63.216	2509.12834
63.435	2630.69655
63.654	2421.72933
63.873	2551.03324
64.092	2511.58742
64.311	2599.54995
64.53	2636.33814
64.749	2500.72969
64.968	2542.77627
65.187	2652.01841
65.405	2791.27877
65.624	2686.52523
65.843	2580.49523
66.062	2715.58288
66.281	2614.95299
66.499	2787.86578
66.718	2709.74611
66.937	2735.93219
67.156	2822.219
67.374	2833.54029
67.593	2897.99994
67.812	2782.43516
68.03	2966.09352
68.249	3069.44718
68.467	3033.23923
68.686	2909.48422
68.905	3018.90182
69.123	3137.89616
69.342	3123.80784
69.56	2992.58943
69.779	3053.36935
69.997	3174.89975
70.216	3106.17042
70.434	3093.65457
70.652	3180.17559
70.871	3124.51368
71.089	3247.18267
71.307	3176.44616
71.526	3124.86735
71.744	3194.88667
71.962	3297.86135
72.181	3177.78633
72.399	3306.11905
72.617	3319.50286
72.835	3341.40511
73.054	3300.52534
73.272	3328.21832
73.49	3423.99001
73.708	3476.81266
73.926	3530.76783
74.144	3448.27935
74.362	3403.40275
74.58	3471.46038
74.798	3593.17942
75.016	3488.87491
75.234	3445.23613
75.452	3394.7352
75.67	3505.33588
75.888	3511.42763
76.106	3761.10782
76.324	3728.62065
76.542	3596.73963
76.76	3625.60146
76.978	3798.43508
77.196	3738.3962
77.413	3761.37159
77.631	3780.32757
77.849	3665.98061
78.067	3704.44592
78.284	3764.96658
78.502	3660.92657
78.72	3910.09617
78.938	4088.40503
79.155	3961.45176
79.373	3976.12058
79.59	4015.75882
79.808	4150.03595
80.026	4048.10927
80.243	4102.95187
80.461	3844.85522
80.678	4208.04017
80.896	4144.79814
81.113	4184.98346
81.331	4067.08756
81.548	4212.92844
81.766	4150.62627
81.983	4489.22394
82.2	4431.80858
82.418	4478.63596
82.635	4422.13734
82.852	4382.14533
83.07	4431.04344
83.287	4515.0958
83.504	4472.42192
83.722	4434.44636
83.939	4426.24144
84.156	4390.28176
84.373	4736.33554
84.591	4529.38476
84.808	4594.34914
85.025	4722.96458
85.242	4597.68718
85.459	4413.35814
85.676	4749.95606
85.893	4518.34952
86.11	4710.94903
86.327	5037.25522
86.544	4861.04832
86.761	4820.64736
86.978	4945.88458
87.195	5019.40405
87.412	5296.39966
87.629	5547.32426
87.846	5592.39025
88.063	5513.81824
88.28	5661.33144
88.497	5772.8851
88.713	5956.1266
88.93	5834.11609
89.147	6167.03655
89.364	6227.79984
89.58	6375.55237
89.797	6392.88009
90.014	6555.00826
90.231	6701.67104
90.447	6726.70643
90.664	6531.33064
90.881	6676.79205
91.097	6901.27207
91.314	7206.40129
91.53	7507.20742
91.747	7770.95576
91.963	8166.83107
92.18	8651.85299
92.396	9277.18294
92.613	9158.5829
92.829	9896.24316
93.046	10675.88687
93.262	10988.97194
93.479	10967.72467
93.695	11002.79507
93.911	11865.14193
94.128	12258.21102
94.344	12334.34818
94.56	13087.03496
94.777	13211.74582
94.993	13449.42804
95.209	14658.49675
95.426	14772.41829
95.642	15362.98198
95.858	15744.66726
96.074	17768.36627
96.29	18461.7399
96.506	20455.96418
96.723	22141.68692
96.939	23382.89801
97.155	24128.71087
97.371	23414.58005
97.587	24324.13945
97.803	26224.7756
98.019	28590.43269
98.235	28857.46048
98.451	29524.2852
98.667	28761.52041
98.883	29068.26361
99.099	31468.7842
99.315	32633.28306
99.53	32825.32948
99.746	32648.70786
99.962	31053.76728
100.178	33933.59814
100.394	35996.3113
100.61	37085.36942
100.825	36528.11849
101.041	37734.75295
101.257	37616.02292
101.473	39630.62585
101.688	40194.41896
101.904	41418.37627
102.12	42769.00173
102.335	45113.92299
102.551	44786.21845
102.766	49246.21615
102.982	51205.07064
103.198	53258.83378
103.413	53801.74636
103.629	55883.21686
103.844	58027.77135
104.06	59337.05732
104.275	57330.05504
104.49	58640.63735
104.706	62374.49825
104.921	63317.71255
105.137	62065.89788
105.352	58800.25864
105.567	59435.76869
105.783	60946.96888
105.998	59664.34719
106.213	64435.90822
106.429	65583.637
106.644	65567.56695
106.859	65526.28479
107.074	65400.50401
107.29	65585.93345
107.505	65551.5058
107.72	65480.48416
107.935	65485.061
108.15	65517.11893
108.365	65597.41846
108.58	65494.21683
108.795	65487.34969
109.01	65494.21683
109.226	65618.10302
109.441	65379.97244
109.656	65597.41846
109.871	65430.18572
110.085	65498.79582
110.3	65528.57671
110.515	65606.60976
110.73	65443.89498
110.945	65556.09379
111.16	65498.79582
111.375	65503.37552
111.59	65551.5058
111.804	65521.7015
112.019	65523.99306
112.234	65560.68251
112.449	65498.79582
112.663	65537.74618
112.878	65560.68251
113.093	65540.039
113.308	65453.03802
113.522	65537.74618
113.737	65659.51696
113.951	65507.95594
114.166	65540.039
114.381	65528.57671
114.595	65551.5058
114.81	65521.7015
115.024	65535.45354
115.239	65507.95594
115.453	65569.86212
115.668	65553.79971
115.882	65501.08558
116.097	65553.79971
116.311	65636.50181
116.525	65528.57671
116.74	65643.40441
116.954	65491.92761
117.169	65540.039
117.383	65521.7015
117.597	65478.196
117.811	65537.74618
118.026	65453.03802
118.24	65489.63856
118.454	65542.332
118.668	65544.62518
118.883	65544.62518
119.097	65526.28479
119.311	65526.28479
119.525	65528.57671
119.739	65533.16108
119.953	65553.79971
120.167	65411.91654
120.381	65562.97714
120.595	65528.57671
120.809	65569.86212
121.023	65514.82791
121.237	65553.79971
121.451	65562.97714
121.665	65558.38806
121.879	65526.28479
122.093	65462.18389
122.307	65634.20132
122.521	65574.45302
122.735	65462.18389
122.949	65558.38806
123.163	65613.50516
123.376	65496.50623
123.59	65475.90802
123.804	65533.16108
124.018	65569.86212
124.231	65581.34073
124.445	65604.31166
124.659	65459.89716
124.872	65441.60966
125.086	65537.74618
125.3	65533.16108
125.513	65514.82791
125.727	65569.86212
125.94	65517.11893
126.154	65537.74618
126.368	65585.93345
126.581	65560.68251
126.795	65569.86212
127.008	65565.27195
127.222	65597.41846
127.435	65585.93345
127.648	65583.637
127.862	65512.53707
128.075	65576.74874
128.289	65494.21683
128.502	65588.23009
128.715	65523.99306
128.929	65638.80249
129.142	65565.27195
129.355	65535.45354
129.568	65473.62022
129.782	65512.53707
129.995	65457.6106
130.208	65558.38806
130.421	65579.04465
130.634	65572.15748
130.848	65494.21683
131.061	65457.6106
131.274	65498.79582
131.487	65597.41846
131.7	65569.86212
131.913	65496.50623
132.126	65542.332
132.339	65446.18048
132.552	65357.17609
132.765	65464.47081
132.978	65542.332
133.191	65565.27195
133.404	65501.08558
133.617	65560.68251
133.83	65512.53707
134.043	65590.52691
134.255	65615.804
134.468	65514.82791
134.681	65611.20651
134.894	65652.61047
135.107	65581.34073
135.319	65503.37552
135.532	65530.86881
135.745	65496.50623
135.958	65549.21208
136.17	65622.70161
136.383	65526.28479
136.596	65574.45302
136.808	65546.91854
137.021	65485.061
137.233	65576.74874
137.446	65519.41013
137.659	65558.38806
137.871	65409.63369
138.084	65549.21208
138.296	65510.24642
138.509	65544.62518
138.721	65579.04465
138.934	65526.28479
139.146	65512.53707
139.358	65572.15748
139.571	65450.752
139.783	65455.32423
139.996	65530.86881
140.208	65475.90802
140.42	65482.77249
140.632	65510.24642
140.845	65562.97714
141.057	65622.70161
141.269	65569.86212
141.481	65544.62518
141.694	65590.52691
141.906	65523.99306
142.118	65641.10336
142.33	65517.11893
142.542	65597.41846
142.754	65505.66564
142.967	65629.60088
143.179	65583.637
143.391	65471.3326
143.603	65562.97714
143.815	65459.89716
144.027	65540.039
144.239	65432.47015
144.451	65530.86881
144.663	65542.332
144.875	65466.75789
145.086	65434.75477
145.298	65487.34969
145.51	65565.27195
145.722	65469.04516
145.934	65558.38806
146.146	65562.97714
146.358	65546.91854
146.569	65597.41846
146.781	65512.53707
146.993	65595.12109
147.205	65448.46615
147.416	65549.21208
147.628	65540.039
147.84	65498.79582
148.051	65546.91854
148.263	65512.53707
148.475	65585.93345
148.686	65551.5058
148.898	65475.90802
149.109	65459.89716
149.321	65588.23009
149.532	65466.75789
149.744	65523.99306
149.955	65501.08558
150.167	65556.09379
150.378	65542.332
150.59	65572.15748
150.801	65611.20651
151.013	65597.41846
151.224	65459.89716
151.435	65546.91854
151.647	65459.89716
151.858	65514.82791
152.069	65546.91854
152.281	65549.21208
152.492	65519.41013
152.703	65553.79971
152.914	65418.76617
153.126	65514.82791
153.337	65519.41013
153.548	65615.804
153.759	65510.24642
153.97	65595.12109
154.181	65579.04465
154.392	65489.63856
154.604	65606.60976
154.815	65569.86212
155.026	65503.37552
155.237	65546.91854
155.448	65439.32452
155.659	65521.7015
155.87	65528.57671
156.081	65507.95594
156.292	65576.74874
156.502	65608.90804
156.713	65505.66564
156.924	65482.77249
157.135	65526.28479
157.346	65542.332
157.557	65505.66564
157.768	65572.15748
157.978	65613.50516
158.189	65517.11893
158.4	65579.04465
158.611	65517.11893
158.821	65466.75789
159.032	65556.09379
159.243	65487.34969
159.453	65535.45354
159.664	65535.45354
159.875	65496.50623
160.085	65572.15748
160.296	65496.50623
160.507	65556.09379
160.717	65581.34073
160.928	65494.21683
161.138	65698.68546
161.349	65553.79971
161.559	65620.40222
161.77	65551.5058
161.98	65574.45302
162.19	65501.08558
162.401	65556.09379
162.611	65489.63856
162.822	65562.97714
163.032	65556.09379
163.242	65569.86212
163.453	65489.63856
163.663	65592.82391
163.873	65517.11893
164.084	65579.04465
164.294	65590.52691
164.504	65540.039
164.714	65521.7015
164.924	65523.99306
165.135	65574.45302
165.345	65494.21683
165.555	65533.16108
165.765	65480.48416
165.975	65489.63856
166.185	65537.74618
166.395	65565.27195
166.605	65606.60976
166.815	65595.12109
167.025	65553.79971
167.235	65455.32423
167.445	65652.61047
167.655	65517.11893
167.865	65546.91854
168.075	65530.86881
168.285	65546.91854
168.495	65528.57671
168.705	65464.47081
168.915	65439.32452
169.124	65503.37552
169.334	65505.66564
169.544	65510.24642
169.754	65546.91854
169.964	65501.08558
170.173	65475.90802
170.383	65521.7015
170.593	65528.57671
170.802	65485.061
171.012	65588.23009
171.222	65551.5058
171.431	65592.82391
171.641	65558.38806
171.851	65613.50516
172.06	65572.15748
172.27	65574.45302
172.479	65507.95594
172.689	65569.86212
172.898	65517.11893
173.108	65560.68251
173.317	65494.21683
173.527	65599.71601
173.736	65604.31166
173.945	65530.86881
174.155	65491.92761
174.364	65494.21683
174.574	65530.86881
174.783	65542.332
174.992	65480.48416
175.202	65540.039
175.411	65482.77249
175.62	65569.86212
175.829	65583.637
176.039	65519.41013
176.248	65489.63856
176.457	65542.332
176.666	65457.6106
176.875	65574.45302
177.084	65503.37552
177.294	65581.34073
177.503	65595.12109
177.712	65453.03802
177.921	65576.74874
178.13	65544.62518
178.339	65631.90101
178.548	65565.27195
178.757	65533.16108
178.966	65494.21683
179.175	65507.95594
179.384	65551.5058
179.593	65528.57671
179.802	65606.60976
180.011	65533.16108
180.219	65553.79971
180.428	65523.99306
180.637	65523.99306
180.846	65494.21683
181.055	65526.28479
181.263	65551.5058
181.472	65448.46615
181.681	65581.34073
181.89	65517.11893
182.098	65450.752
182.307	65558.38806
182.516	65519.41013
182.724	65535.45354
182.933	65498.79582
183.142	65622.70161
183.35	65519.41013
183.559	65526.28479
183.767	65542.332
183.976	65572.15748
184.184	65585.93345
184.393	65512.53707
184.601	65572.15748
184.81	65453.03802
185.018	65576.74874
185.227	65514.82791
185.435	65595.12109
185.644	65498.79582
185.852	65641.10336
186.06	65496.50623
186.269	65496.50623
186.477	65491.92761
186.685	65540.039
186.894	65450.752
187.102	65535.45354
187.31	65466.75789
187.518	65540.039
187.727	65625.00118
187.935	65602.01374
188.143	65542.332
188.351	65510.24642
188.559	65602.01374
188.768	65464.47081
188.976	65485.061
189.184	65501.08558
189.392	65498.79582
189.6	65507.95594
189.808	65427.90145
190.016	65569.86212
190.224	65558.38806
190.432	65528.57671
190.64	65533.16108
190.848	65523.99306
191.056	65475.90802
191.264	65514.82791
191.472	65540.039
191.679	65556.09379
191.887	65549.21208
192.095	65631.90101
192.303	65512.53707
192.511	65562.97714
192.719	65638.80249
192.926	65482.77249
193.134	65638.80249
193.342	65567.56695
193.55	65546.91854
193.757	65540.039
193.965	65517.11893
194.173	65501.08558
194.38	65606.60976
194.588	65581.34073
194.796	65560.68251
195.003	65485.061
195.211	65581.34073
195.418	65562.97714
195.626	65629.60088
195.833	65523.99306
196.041	65480.48416
196.248	65540.039
196.456	65482.77249
196.663	65439.32452
196.871	65569.86212
197.078	65521.7015
197.285	65546.91854
197.493	65521.7015
197.7	65402.78616
197.908	65514.82791
198.115	65556.09379
198.322	65526.28479
198.529	65597.41846
198.737	65615.804
198.944	65521.7015
199.151	65613.50516
199.358	65579.04465
199.566	65657.21461
199.773	65448.46615
199.98	65544.62518
200.187	65574.45302
200.394	65537.74618
200.601	65416.48278
200.809	65627.30094
201.016	65514.82791
201.223	65507.95594
201.43	65622.70161
201.637	65565.27195
201.844	65569.86212
202.051	65643.40441
202.258	65519.41013
202.465	65560.68251
202.672	65631.90101
202.878	65537.74618
203.085	65565.27195
203.292	65519.41013
203.499	65489.63856
203.706	65537.74618
203.913	65535.45354
204.12	65597.41846
204.326	65579.04465
204.533	65590.52691
204.74	65480.48416
204.947	65528.57671
205.153	65540.039
205.36	65523.99306
205.567	65629.60088
205.773	65622.70161
205.98	65501.08558
206.187	65544.62518
206.393	65535.45354
206.6	65558.38806
206.806	65599.71601
207.013	65473.62022
207.22	65480.48416
207.426	65590.52691
207.633	65530.86881
207.839	65464.47081
208.046	65496.50623
208.252	65498.79582
208.458	65494.21683
208.665	65521.7015
208.871	65560.68251
209.078	65453.03802
209.284	65544.62518
209.49	65556.09379
209.697	65558.38806
209.903	65597.41846
210.109	65562.97714
210.316	65496.50623
210.522	65576.74874
210.728	65514.82791
210.934	65318.46192
211.14	65558.38806
211.347	65618.10302
211.553	65503.37552
211.759	65526.28479
211.965	65480.48416
212.171	65503.37552
212.377	65469.04516
212.583	65530.86881
212.789	65567.56695
212.996	65517.11893
213.202	65482.77249
213.408	65523.99306
213.614	65530.86881
213.82	65579.04465
214.025	65562.97714
214.231	65608.90804
214.437	65567.56695
214.643	65464.47081
214.849	65528.57671
215.055	65535.45354
215.261	65592.82391
215.467	65526.28479
215.672	65606.60976
215.878	65466.75789
216.084	65585.93345
216.29	65526.28479
216.496	65450.752
216.701	65494.21683
216.907	65588.23009
217.113	65528.57671
217.318	65459.89716
217.524	65572.15748
217.73	65583.637
217.935	65551.5058
218.141	65498.79582
218.346	65517.11893
218.552	65549.21208
218.758	65517.11893
218.963	65505.66564
219.169	65514.82791
219.374	65526.28479
219.58	65526.28479
219.785	65546.91854
219.991	65473.62022
220.196	65627.30094
220.401	65560.68251
220.607	65530.86881
220.812	65446.18048
221.017	65535.45354
221.223	65482.77249
221.428	65457.6106
221.633	65478.196
221.839	65526.28479
222.044	65585.93345
222.249	65517.11893
222.454	65510.24642
222.66	65512.53707
222.865	65558.38806
