Data from Sun spf450_Subt2__0__09-55-34-340.txt Node

Date: Tue Sep 23 09:55:34 EDT 2025
User: brett
Spectrometer: USB4F03499
Trigger mode: 4
Integration Time (sec): 1.000000E-1
Scans to average: 1
Electric dark correction enabled: true
Nonlinearity correction enabled: true
Boxcar width: 0
XAxis mode: Wavelengths
Number of Pixels in Spectrum: 3648
>>>>>Begin Spectral Data<<<<<
0	-1.15387
0.225	-1.15387
0.449	-1.15387
0.674	3.45429
0.898	-3.45555
1.123	-28.62371
1.347	62.91334
1.572	37.82036
1.796	51.65892
2.021	37.81738
2.245	-74.41013
2.469	-10.32074
2.694	-49.21934
2.918	-42.45994
3.143	44.71264
3.367	-53.89085
3.591	24.08077
3.815	-3.43875
4.04	292.9137
4.264	416.1765
4.488	473.7951
4.712	378.28771
4.936	423.92237
5.161	443.884
5.385	483.9744
5.609	410.83649
5.833	414.5204
6.057	410.43586
6.281	395.03601
6.505	513.02674
6.729	425.73632
6.953	619.95674
7.177	419.59527
7.401	541.65731
7.625	466.95951
7.849	440.51252
8.073	438.55032
8.297	424.30331
8.521	504.0006
8.744	470.27163
8.968	488.75211
9.192	520.34264
9.416	513.95716
9.64	425.04061
9.863	533.44611
10.087	467.87032
10.311	470.05882
10.535	448.57833
10.758	459.30771
10.982	426.75507
11.205	380.74433
11.429	541.73775
11.653	548.28901
11.876	392.00865
12.1	508.43766
12.323	529.37327
12.547	515.01271
12.77	535.70128
12.994	541.09668
13.217	535.3806
13.441	490.30914
13.664	578.51933
13.887	544.5166
14.111	539.44584
14.334	490.4557
14.557	469.42466
14.781	646.78166
15.004	574.48081
15.227	487.10563
15.451	655.09627
15.674	585.66446
15.897	533.1755
16.12	588.90304
16.343	687.82324
16.567	721.53128
16.79	636.59584
17.013	783.84258
17.236	732.79001
17.459	734.54791
17.682	647.39776
17.905	808.31301
18.128	812.01582
18.351	799.55349
18.574	916.63684
18.797	958.61173
19.02	939.79861
19.243	1099.53579
19.466	936.71103
19.689	1001.0809
19.911	1163.644
20.134	1119.65305
20.357	1183.30309
20.58	1208.09002
20.803	1196.05662
21.025	1265.19108
21.248	1307.94108
21.471	1360.48137
21.694	1506.5658
21.916	1569.18907
22.139	1669.23256
22.362	1549.70002
22.584	1665.89328
22.807	1859.74921
23.029	1870.84223
23.252	1982.92764
23.475	2024.02798
23.697	2228.89953
23.92	2301.04046
24.142	2181.99134
24.365	2486.0755
24.587	2508.9776
24.809	2506.53599
25.032	2669.2746
25.254	2712.97597
25.477	2906.0679
25.699	3024.98977
25.921	3197.79732
26.144	3352.54559
26.366	3463.13542
26.588	3562.34717
26.81	3759.82593
27.033	3905.3625
27.255	3934.69197
27.477	4306.0357
27.699	4626.26523
27.921	4615.17984
28.144	4862.1537
28.366	5119.9925
28.588	5139.82365
28.81	5690.31479
29.032	5894.81603
29.254	6148.27711
29.476	6456.86049
29.698	6610.79837
29.92	7020.77837
30.142	7604.04532
30.364	7810.63744
30.586	8253.19631
30.808	8316.76994
31.029	8690.22986
31.251	9152.02385
31.473	9457.88637
31.695	9876.33403
31.917	10028.34652
32.139	10356.23329
32.36	10857.14669
32.582	11191.23696
32.804	11409.6715
33.026	11788.88983
33.247	12187.1846
33.469	12631.50616
33.691	12973.72892
33.912	13529.45067
34.134	13702.40851
34.355	13951.33988
34.577	14524.13593
34.798	14937.29178
35.02	15242.27656
35.242	15258.85482
35.463	16240.70257
35.684	16504.04713
35.906	16694.87217
36.127	17408.58893
36.349	17242.00302
36.57	18288.20901
36.792	19101.38025
37.013	19223.20744
37.234	19464.74737
37.456	20117.83524
37.677	20651.60556
37.898	20856.21758
38.119	21218.36282
38.341	21892.04436
38.562	22555.09963
38.783	22692.14127
39.004	22657.55945
39.225	23294.39721
39.447	24263.60851
39.668	25255.39724
39.889	25132.02468
40.11	26005.81599
40.331	26555.32879
40.552	26944.02001
40.773	27850.56499
40.994	28213.48676
41.215	29028.34707
41.436	29652.1689
41.657	30262.08205
41.878	31568.72378
42.099	32180.29533
42.32	33234.2655
42.54	34671.03844
42.761	35116.84322
42.982	36493.06094
43.203	37668.51456
43.424	38951.0565
43.645	39031.12338
43.865	40857.81049
44.086	40522.29511
44.307	42558.59897
44.527	43318.8535
44.748	44566.39241
44.969	45441.95172
45.189	44791.48521
45.41	44674.69438
45.631	47551.66899
45.851	46714.77201
46.072	46977.65032
46.292	47590.34045
46.513	47868.3959
46.733	50002.42203
46.954	50516.96782
47.174	51911.55175
47.395	50627.28852
47.615	53297.86827
47.836	53977.47724
48.056	55135.61001
48.276	54417.20365
48.497	53411.98891
48.717	56435.57953
48.937	56176.95233
49.158	57543.40215
49.378	56801.68726
49.598	57976.83085
49.818	59664.34312
50.038	59718.43327
50.259	60866.48604
50.479	61076.09632
50.699	63269.39868
50.919	65243.41366
51.139	65752.04574
51.359	65779.55199
51.579	65797.90395
51.799	65795.60932
52.02	65781.84535
52.24	65745.17323
52.46	65786.43261
52.68	65802.49376
52.899	65747.46388
53.119	65772.67299
53.339	65813.97146
53.559	65763.50352
53.779	65683.39296
53.999	65703.97197
54.219	65639.99531
54.439	65825.45372
54.658	65859.92799
54.878	65761.2116
55.098	65800.19876
55.318	65738.30233
55.538	65710.83483
55.757	65761.2116
55.977	65772.67299
56.197	65701.6847
56.416	65774.96581
56.636	65772.67299
56.855	65795.60932
57.075	65710.83483
57.295	65807.08429
57.514	65848.43197
57.734	65745.17323
57.953	65761.2116
58.173	65752.04574
58.392	65788.72652
58.612	65797.90395
58.831	65802.49376
59.051	65740.59245
59.27	65674.25133
59.489	65756.62831
59.709	65770.38035
59.928	65791.0206
60.147	65774.96581
60.367	65800.19876
60.586	65722.2765
60.805	65781.84535
61.024	65763.50352
61.244	65843.83485
61.463	65777.25881
61.682	65754.33693
61.901	65742.88275
62.12	65800.19876
62.34	65763.50352
62.559	65768.08789
62.778	65644.5605
62.997	65788.72652
63.216	65832.34527
63.435	65825.45372
63.654	65674.25133
63.873	65786.43261
64.092	65772.67299
64.311	65713.12281
64.53	65752.04574
64.749	65770.38035
64.968	65758.91987
65.187	65855.32903
65.405	65772.67299
65.624	65768.08789
65.843	65747.46388
66.062	65756.62831
66.281	65719.98781
66.499	65843.83485
66.718	65825.45372
66.937	65742.88275
67.156	65758.91987
67.374	65797.90395
67.593	65660.54418
67.812	65768.08789
68.03	65779.55199
68.249	65827.75072
68.467	65797.90395
68.686	65731.43304
68.905	65719.98781
69.123	65889.83926
69.342	65763.50352
69.56	65793.31487
69.779	65866.82781
69.997	65740.59245
70.216	65781.84535
70.434	65756.62831
70.652	65726.85441
70.871	65772.67299
71.089	65800.19876
71.307	65841.53657
71.526	65749.75472
71.744	65807.08429
71.962	65800.19876
72.181	65804.78893
72.399	65797.90395
72.617	65754.33693
72.835	65738.30233
73.054	65807.08429
73.272	65784.13889
73.49	65795.60932
73.708	65848.43197
73.926	65839.23847
74.144	65834.64282
74.362	65749.75472
74.58	65784.13889
74.798	65781.84535
75.016	65765.79562
75.234	65797.90395
75.452	65772.67299
75.67	65736.01239
75.888	65809.37983
76.106	65710.83483
76.324	65843.83485
76.542	65848.43197
76.76	65768.08789
76.978	65779.55199
77.196	65811.67555
77.413	65738.30233
77.631	65715.41097
77.849	65823.1569
78.067	65733.72263
78.284	65731.43304
78.502	65788.72652
78.72	65788.72652
78.938	65843.83485
79.155	65825.45372
79.373	65779.55199
79.59	65825.45372
79.808	65788.72652
80.026	65813.97146
80.243	65797.90395
80.461	65687.96483
80.678	65671.96637
80.896	65731.43304
81.113	65761.2116
81.331	65793.31487
81.548	65587.54571
81.766	65726.85441
81.983	65749.75472
82.2	65800.19876
82.418	65855.32903
82.635	65719.98781
82.852	65624.02265
83.07	65770.38035
83.287	65781.84535
83.504	65747.46388
83.722	65674.25133
83.939	65763.50352
84.156	65667.39696
84.373	65820.86026
84.591	65779.55199
84.808	65765.79562
85.025	65726.85441
85.242	65800.19876
85.459	65758.91987
85.676	65770.38035
85.893	65836.94055
86.11	65752.04574
86.327	65754.33693
86.544	65765.79562
86.761	65795.60932
86.978	65726.85441
87.195	65761.2116
87.412	65871.42862
87.629	65816.26754
87.846	65777.25881
88.063	65692.53741
88.28	65770.38035
88.497	65779.55199
88.713	65809.37983
88.93	65834.64282
89.147	65795.60932
89.364	65736.01239
89.58	65763.50352
89.797	65736.01239
90.014	65765.79562
90.231	65713.12281
90.447	65791.0206
90.664	65736.01239
90.881	65745.17323
91.097	65699.39762
91.314	65706.25941
91.53	65784.13889
91.747	65754.33693
91.963	65818.56381
92.18	65770.38035
92.396	65770.38035
92.613	65756.62831
92.829	65855.32903
93.046	65839.23847
93.262	65830.0479
93.479	65738.30233
93.695	65745.17323
93.911	65779.55199
94.128	65830.0479
94.344	65692.53741
94.56	65731.43304
94.777	65878.33122
94.993	65809.37983
95.209	65703.97197
95.426	65551.11297
95.642	65832.34527
95.858	65793.31487
96.074	65777.25881
96.29	65843.83485
96.506	65772.67299
96.723	65754.33693
96.939	65825.45372
97.155	65813.97146
97.371	65763.50352
97.587	65795.60932
97.803	65797.90395
98.019	65788.72652
98.235	65731.43304
98.451	65820.86026
98.667	65674.25133
98.883	65811.67555
99.099	65843.83485
99.315	65816.26754
99.53	65756.62831
99.746	65788.72652
99.962	65823.1569
100.178	65779.55199
100.394	65781.84535
100.61	65848.43197
100.825	65733.72263
101.041	65811.67555
101.257	65758.91987
101.473	65763.50352
101.688	65745.17323
101.904	65802.49376
102.12	65770.38035
102.335	65756.62831
102.551	65802.49376
102.766	65710.83483
102.982	65788.72652
103.198	65809.37983
103.413	65768.08789
103.629	65800.19876
103.844	65793.31487
104.06	65781.84535
104.275	65729.14364
104.49	65747.46388
104.706	65820.86026
104.921	65184.63313
105.137	65768.08789
105.352	65701.6847
105.567	65781.84535
105.783	65758.91987
105.998	65752.04574
106.213	65733.72263
106.429	65818.56381
106.644	65802.49376
106.859	65761.2116
107.074	65635.43082
107.29	65820.86026
107.505	65786.43261
107.72	65715.41097
107.935	65719.98781
108.15	65752.04574
108.365	65832.34527
108.58	65729.14364
108.795	65722.2765
109.01	65729.14364
109.226	65853.02983
109.441	65614.89925
109.656	65832.34527
109.871	65665.11253
110.085	65733.72263
110.3	65763.50352
110.515	65841.53657
110.73	65678.82179
110.945	65791.0206
111.16	65733.72263
111.375	65738.30233
111.59	65786.43261
111.804	65756.62831
112.019	65758.91987
112.234	65795.60932
112.449	65733.72263
112.663	65772.67299
112.878	65795.60932
113.093	65774.96581
113.308	65687.96483
113.522	65772.67299
113.737	65894.44377
113.951	65742.88275
114.166	65774.96581
114.381	65763.50352
114.595	65786.43261
114.81	65756.62831
115.024	65770.38035
115.239	65742.88275
115.453	65804.78893
115.668	65788.72652
115.882	65736.01239
116.097	65788.72652
116.311	65871.42862
116.525	65763.50352
116.74	65878.33122
116.954	65726.85441
117.169	65774.96581
117.383	65756.62831
117.597	65713.12281
117.811	65772.67299
118.026	65687.96483
118.24	65724.56537
118.454	65777.25881
118.668	65779.55199
118.883	65779.55199
119.097	65761.2116
119.311	65761.2116
119.525	65763.50352
119.739	65768.08789
119.953	65788.72652
120.167	65646.84335
120.381	65797.90395
120.595	65763.50352
120.809	65804.78893
121.023	65749.75472
121.237	65788.72652
121.451	65797.90395
121.665	65793.31487
121.879	65761.2116
122.093	65697.1107
122.307	65869.12813
122.521	65809.37983
122.735	65697.1107
122.949	65793.31487
123.163	65848.43197
123.376	65731.43304
123.59	65710.83483
123.804	65768.08789
124.018	65804.78893
124.231	65816.26754
124.445	65839.23847
124.659	65694.82397
124.872	65676.53647
125.086	65772.67299
125.3	65768.08789
125.513	65749.75472
125.727	65804.78893
125.94	65752.04574
126.154	65772.67299
126.368	65820.86026
126.581	65795.60932
126.795	65804.78893
127.008	65800.19876
127.222	65832.34527
127.435	65820.86026
127.648	65818.56381
127.862	65747.46388
128.075	65811.67555
128.289	65729.14364
128.502	65823.1569
128.715	65758.91987
128.929	65873.7293
129.142	65800.19876
129.355	65770.38035
129.568	65708.54703
129.782	65747.46388
129.995	65692.53741
130.208	65793.31487
130.421	65813.97146
130.634	65807.08429
130.848	65729.14364
131.061	65692.53741
131.274	65733.72263
131.487	65832.34527
131.7	65804.78893
131.913	65731.43304
132.126	65777.25881
132.339	65681.10729
132.552	65592.1029
132.765	65699.39762
132.978	65777.25881
133.191	65800.19876
133.404	65736.01239
133.617	65795.60932
133.83	65747.46388
134.043	65825.45372
134.255	65850.73081
134.468	65749.75472
134.681	65846.13332
134.894	65887.53728
135.107	65816.26754
135.319	65738.30233
135.532	65765.79562
135.745	65731.43304
135.958	65784.13889
136.17	65857.62842
136.383	65761.2116
136.596	65809.37983
136.808	65781.84535
137.021	65719.98781
137.233	65811.67555
137.446	65754.33693
137.659	65793.31487
137.871	65644.5605
138.084	65784.13889
138.296	65745.17323
138.509	65779.55199
138.721	65813.97146
138.934	65761.2116
139.146	65747.46388
139.358	65807.08429
139.571	65685.67881
139.783	65690.25103
139.996	65765.79562
140.208	65710.83483
140.42	65717.6993
140.632	65745.17323
140.845	65797.90395
141.057	65857.62842
141.269	65804.78893
141.481	65779.55199
141.694	65825.45372
141.906	65758.91987
142.118	65876.03017
142.33	65752.04574
142.542	65832.34527
142.754	65740.59245
142.967	65864.52769
143.179	65818.56381
143.391	65706.25941
143.603	65797.90395
143.815	65694.82397
144.027	65774.96581
144.239	65667.39696
144.451	65765.79562
144.663	65777.25881
144.875	65701.6847
145.086	65669.68158
145.298	65722.2765
145.51	65800.19876
145.722	65703.97197
145.934	65793.31487
146.146	65797.90395
146.358	65781.84535
146.569	65832.34527
146.781	65747.46388
146.993	65830.0479
147.205	65683.39296
147.416	65784.13889
147.628	65774.96581
147.84	65733.72263
148.051	65781.84535
148.263	65747.46388
148.475	65820.86026
148.686	65786.43261
148.898	65710.83483
149.109	65694.82397
149.321	65823.1569
149.532	65701.6847
149.744	65758.91987
149.955	65736.01239
150.167	65791.0206
150.378	65777.25881
150.59	65807.08429
150.801	65846.13332
151.013	65832.34527
151.224	65694.82397
151.435	65781.84535
151.647	65694.82397
151.858	65749.75472
152.069	65781.84535
152.281	65784.13889
152.492	65754.33693
152.703	65788.72652
152.914	65653.69298
153.126	65749.75472
153.337	65754.33693
153.548	65850.73081
153.759	65745.17323
153.97	65830.0479
154.181	65813.97146
154.392	65724.56537
154.604	65841.53657
154.815	65804.78893
155.026	65738.30233
155.237	65781.84535
155.448	65674.25133
155.659	65756.62831
155.87	65763.50352
156.081	65742.88275
156.292	65811.67555
156.502	65843.83485
156.713	65740.59245
156.924	65717.6993
157.135	65761.2116
157.346	65777.25881
157.557	65740.59245
157.768	65807.08429
157.978	65848.43197
158.189	65752.04574
158.4	65813.97146
158.611	65752.04574
158.821	65701.6847
159.032	65791.0206
159.243	65722.2765
159.453	65770.38035
159.664	65770.38035
159.875	65731.43304
160.085	65807.08429
160.296	65731.43304
160.507	65791.0206
160.717	65816.26754
160.928	65729.14364
161.138	65933.61227
161.349	65788.72652
161.559	65855.32903
161.77	65786.43261
161.98	65809.37983
162.19	65736.01239
162.401	65791.0206
162.611	65724.56537
162.822	65797.90395
163.032	65791.0206
163.242	65804.78893
163.453	65724.56537
163.663	65827.75072
163.873	65752.04574
164.084	65813.97146
164.294	65825.45372
164.504	65774.96581
164.714	65756.62831
164.924	65758.91987
165.135	65809.37983
165.345	65729.14364
165.555	65768.08789
165.765	65715.41097
165.975	65724.56537
166.185	65772.67299
166.395	65800.19876
166.605	65841.53657
166.815	65830.0479
167.025	65788.72652
167.235	65690.25103
167.445	65887.53728
167.655	65752.04574
167.865	65781.84535
168.075	65765.79562
168.285	65781.84535
168.495	65763.50352
168.705	65699.39762
168.915	65674.25133
169.124	65738.30233
169.334	65740.59245
169.544	65745.17323
169.754	65781.84535
169.964	65736.01239
170.173	65710.83483
170.383	65756.62831
170.593	65763.50352
170.802	65719.98781
171.012	65823.1569
171.222	65786.43261
171.431	65827.75072
171.641	65793.31487
171.851	65848.43197
172.06	65807.08429
172.27	65809.37983
172.479	65742.88275
172.689	65804.78893
172.898	65752.04574
173.108	65795.60932
173.317	65729.14364
173.527	65834.64282
173.736	65839.23847
173.945	65765.79562
174.155	65726.85441
174.364	65729.14364
174.574	65765.79562
174.783	65777.25881
174.992	65715.41097
175.202	65774.96581
175.411	65717.6993
175.62	65804.78893
175.829	65818.56381
176.039	65754.33693
176.248	65724.56537
176.457	65777.25881
176.666	65692.53741
176.875	65809.37983
177.084	65738.30233
177.294	65816.26754
177.503	65830.0479
177.712	65687.96483
177.921	65811.67555
178.13	65779.55199
178.339	65866.82781
178.548	65800.19876
178.757	65768.08789
178.966	65729.14364
179.175	65742.88275
179.384	65786.43261
179.593	65763.50352
179.802	65841.53657
180.011	65768.08789
180.219	65788.72652
180.428	65758.91987
180.637	65758.91987
180.846	65729.14364
181.055	65761.2116
181.263	65786.43261
181.472	65683.39296
181.681	65816.26754
181.89	65752.04574
182.098	65685.67881
182.307	65793.31487
182.516	65754.33693
182.724	65770.38035
182.933	65733.72263
183.142	65857.62842
183.35	65754.33693
183.559	65761.2116
183.767	65777.25881
183.976	65807.08429
184.184	65820.86026
184.393	65747.46388
184.601	65807.08429
184.81	65687.96483
185.018	65811.67555
185.227	65749.75472
185.435	65830.0479
185.644	65733.72263
185.852	65876.03017
186.06	65731.43304
186.269	65731.43304
186.477	65726.85441
186.685	65774.96581
186.894	65685.67881
187.102	65770.38035
187.31	65701.6847
187.518	65774.96581
187.727	65859.92799
187.935	65836.94055
188.143	65777.25881
188.351	65745.17323
188.559	65836.94055
188.768	65699.39762
188.976	65719.98781
189.184	65736.01239
189.392	65733.72263
189.6	65742.88275
189.808	65662.82826
190.016	65804.78893
190.224	65793.31487
190.432	65763.50352
190.64	65768.08789
190.848	65758.91987
191.056	65710.83483
191.264	65749.75472
191.472	65774.96581
191.679	65791.0206
191.887	65784.13889
192.095	65866.82781
192.303	65747.46388
192.511	65797.90395
192.719	65873.7293
192.926	65717.6993
193.134	65873.7293
193.342	65802.49376
193.55	65781.84535
193.757	65774.96581
193.965	65752.04574
194.173	65736.01239
194.38	65841.53657
194.588	65816.26754
194.796	65795.60932
195.003	65719.98781
195.211	65816.26754
195.418	65797.90395
195.626	65864.52769
195.833	65758.91987
196.041	65715.41097
196.248	65774.96581
196.456	65717.6993
196.663	65674.25133
196.871	65804.78893
197.078	65756.62831
197.285	65781.84535
197.493	65756.62831
197.7	65637.71297
197.908	65749.75472
198.115	65791.0206
198.322	65761.2116
198.529	65832.34527
198.737	65850.73081
198.944	65756.62831
199.151	65848.43197
199.358	65813.97146
199.566	44857.86234
199.773	26987.38923
199.98	12117.86581
200.187	12238.38269
200.394	12135.16997
200.601	12076.3817
200.809	12250.92363
201.016	12071.94666
201.223	12129.56331
201.43	12353.14045
201.637	12309.81924
201.844	12268.05368
202.051	12138.0526
202.258	12227.67887
202.465	12248.79695
202.672	12501.41562
202.878	12131.13941
203.085	12420.67672
203.292	12145.04814
203.499	12393.42061
203.706	12453.62286
203.913	12227.59882
204.12	12565.70659
204.326	12349.79373
204.533	12329.0277
204.74	12073.87739
204.947	12523.07144
205.153	12189.86109
205.36	12189.93811
205.567	12356.00877
205.773	12683.72345
205.98	12519.77154
206.187	12480.65983
206.393	12165.1222
206.6	12506.51767
206.806	12576.06764
207.013	12857.25463
207.22	12450.78816
207.426	12585.02164
207.633	12501.17281
207.839	12271.5002
208.046	12734.95302
208.252	12553.76958
208.458	12629.83432
208.665	12675.46463
208.871	12837.44075
209.078	12707.61578
209.284	12607.66305
209.49	12760.26306
209.697	12681.90862
209.903	12642.31216
210.109	12710.69169
210.316	12519.22412
210.522	12780.91801
210.728	12682.70453
210.934	12647.64861
211.14	12558.93055
211.347	12872.68077
211.553	12713.59368
211.759	12627.62799
211.965	12813.70391
212.171	12766.01885
212.377	12836.54661
212.583	12864.08857
212.789	12832.22668
212.996	12904.78662
213.202	12965.22681
213.408	12947.96096
213.614	12882.23756
213.82	12857.81932
214.025	12702.62697
214.231	12891.71559
214.437	12634.6369
214.643	12811.80642
214.849	12817.43359
215.055	12830.3598
215.261	12801.02577
215.467	12690.12897
215.672	12812.79532
215.878	12733.43404
216.084	12780.02131
216.29	12716.34011
216.496	12731.5431
216.701	12547.17458
216.907	13119.08953
217.113	12615.80727
217.318	12847.56485
217.524	12786.40826
217.73	12856.36239
217.935	12725.43111
218.141	12825.96598
218.346	12644.67178
218.552	12610.23392
218.758	12965.2877
218.963	12762.25978
219.169	12668.59104
219.374	12867.57073
219.58	12796.99377
219.785	12618.02059
219.991	12681.82209
220.196	12813.32373
220.401	12736.62406
220.607	12765.28288
220.812	12777.3837
