Data from 1003 pointing at moon_Subt2__0__22-05-15-398.txt Node

Date: Tue Oct 07 22:05:15 EDT 2025
User: brett
Spectrometer: USB4F03499
Trigger mode: 4
Integration Time (sec): 6.187200E0
Scans to average: 1
Electric dark correction enabled: true
Nonlinearity correction enabled: true
Boxcar width: 0
XAxis mode: Wavelengths
Number of Pixels in Spectrum: 3648
>>>>>Begin Spectral Data<<<<<
345.386	-1399.93612
345.605	-1399.93612
345.824	-1399.93612
346.044	-1396.86847
346.263	-1347.54559
346.482	203.52977
346.701	-252.66287
346.92	24.80863
347.139	-261.87308
347.358	-91.61699
347.577	1034.59626
347.796	176.58194
348.015	836.5121
348.234	-669.02534
348.453	-499.95757
348.672	-204.92039
348.891	-343.94133
349.11	-72.29668
349.329	1229.8708
349.548	210.30072
349.767	1245.83546
349.986	1774.56165
350.205	319.90261
350.424	262.89581
350.643	148.65861
350.862	214.80742
351.08	1969.29167
351.299	285.0988
351.518	192.15391
351.737	1009.47173
351.956	747.52813
352.174	877.79994
352.393	632.7677
352.612	-64.35789
352.831	863.95495
353.049	919.64507
353.268	267.31951
353.487	1281.62623
353.705	279.75425
353.924	494.67334
354.143	1013.35166
354.361	671.77819
354.58	933.89581
354.798	140.6222
355.017	594.44124
355.236	37.2151
355.454	-182.34878
355.673	480.52029
355.891	1623.87154
356.11	27.07232
356.328	28.20851
356.547	618.44596
356.765	256.08708
356.984	867.79739
357.202	358.02934
357.42	280.9149
357.639	711.24763
357.857	814.45732
358.076	175.45387
358.294	479.09063
358.512	675.33419
358.731	1484.36122
358.949	-33.85218
359.167	1239.06398
359.386	3374.46743
359.604	203.54519
359.822	889.62027
360.04	993.06325
360.259	578.7524
360.477	-41.80217
360.695	761.78546
360.913	1156.68731
361.131	1810.84915
361.35	1153.12761
361.568	370.05144
361.786	1241.5744
362.004	842.30068
362.222	544.85543
362.44	1057.26557
362.658	1015.43628
362.876	1603.23541
363.094	754.32262
363.312	749.67632
363.53	1519.95119
363.749	763.43071
363.967	931.11502
364.184	154.05198
364.402	961.45331
364.62	520.9462
364.838	-1.12851
365.056	583.96852
365.274	458.11516
365.492	421.98767
365.71	7.89746
365.928	558.09966
366.146	1261.57066
366.364	1324.5619
366.581	882.53344
366.799	709.70589
367.017	914.61549
367.235	526.91259
367.453	794.75865
367.67	312.03898
367.888	618.82707
368.106	1537.80222
368.323	6290.57393
368.541	844.40763
368.759	835.85829
368.977	1904.95456
369.194	1077.7817
369.412	1045.32542
369.629	1034.34623
369.847	625.5082
370.065	1031.80563
370.282	807.56776
370.5	1200.6951
370.717	1397.5738
370.935	1071.27187
371.152	672.80951
371.37	1040.22526
371.588	1433.85422
371.805	795.56311
372.022	1347.40252
372.24	711.40069
372.457	1159.08065
372.675	638.63766
372.892	721.18115
373.11	1377.02622
373.327	787.39731
373.544	936.36236
373.762	891.06292
373.979	1603.07831
374.196	1856.66368
374.414	1203.93831
374.631	1668.59143
374.848	1804.3678
375.066	726.04472
375.283	445.58692
375.5	583.24376
375.717	1966.64993
375.935	1456.82921
376.152	1648.66821
376.369	950.72745
376.586	906.90189
376.803	2384.66861
377.02	1484.12358
377.238	949.20284
377.455	1002.37672
377.672	1180.39543
377.889	812.89356
378.106	583.54137
378.323	712.12059
378.54	1076.61627
378.757	963.23841
378.974	909.71156
379.191	2140.70715
379.408	1215.40556
379.625	947.50943
379.842	882.00316
380.059	792.1646
380.276	1270.38208
380.493	682.25595
380.71	1412.42569
380.927	1617.76837
381.143	1854.59702
381.36	1411.1594
381.577	910.84034
381.794	1128.36154
382.011	1415.95274
382.228	1177.53437
382.444	1291.081
382.661	1404.99656
382.878	1147.22613
383.095	1131.748
383.311	1384.45932
383.528	1649.90313
383.745	938.31247
383.962	810.72412
384.178	1097.03733
384.395	1378.70639
384.612	1443.62589
384.828	1712.66425
385.045	1055.15493
385.261	1293.29697
385.478	1618.77133
385.695	993.48072
385.911	1025.12386
386.128	1455.57535
386.344	1496.8348
386.561	636.33497
386.777	1416.37285
386.994	1560.63627
387.21	3056.69678
387.427	1003.11967
387.643	768.30331
387.86	1502.63298
388.076	1178.302
388.292	1746.13576
388.509	844.76638
388.725	1572.1758
388.942	1285.96367
389.158	823.59527
389.374	1340.8187
389.591	1412.47264
389.807	1328.39433
390.023	1417.55545
390.239	749.35295
390.456	1037.93108
390.672	1571.25364
390.888	1026.21627
391.104	2945.99606
391.321	1583.32374
391.537	1342.2575
391.753	1280.01851
391.969	1565.252
392.185	1406.17536
392.401	1682.55705
392.618	1519.75122
392.834	1977.83472
393.05	1369.4711
393.266	1607.5389
393.482	2134.72665
393.698	1230.04047
393.914	2080.44842
394.13	2171.30564
394.346	2208.3917
394.562	1773.32958
394.778	1671.17849
394.994	2163.29366
395.21	1761.20598
395.426	1781.7479
395.642	1734.61326
395.858	1579.04113
396.073	1425.89109
396.289	1764.75055
396.505	1897.04943
396.721	2574.84111
396.937	1969.87707
397.153	1344.37905
397.369	1804.83109
397.584	1844.17455
397.8	1426.01718
398.016	2038.06798
398.232	3025.89027
398.447	1787.56844
398.663	1980.84668
398.879	1141.88674
399.094	1796.84149
399.31	2557.87058
399.526	2276.03122
399.741	1423.84383
399.957	2254.67752
400.173	2008.43701
400.388	1824.56171
400.604	1455.04407
400.82	1893.82893
401.035	1979.27349
401.251	1459.05402
401.466	1342.93467
401.682	1993.88586
401.897	1877.26484
402.113	1867.23304
402.328	1853.51566
402.544	2246.73667
402.759	2172.89369
402.974	2007.92601
403.19	2574.01588
403.405	2508.40595
403.621	2619.01761
403.836	2974.43104
404.051	2274.51081
404.267	2500.88778
404.482	2955.4815
404.697	3103.43594
404.913	2015.32142
405.128	2899.5022
405.343	2932.23534
405.559	2512.64249
405.774	2582.72822
405.989	2709.98169
406.204	2915.27666
406.42	2961.16642
406.635	2936.26047
406.85	2692.87141
407.065	3177.10721
407.28	2480.33829
407.495	2744.68778
407.71	3943.63666
407.926	3071.1554
408.141	2972.45661
408.356	3625.11087
408.571	3061.11318
408.786	2873.48882
409.001	2798.72686
409.216	3267.41151
409.431	3444.09845
409.646	3780.44221
409.861	3516.68079
410.076	3566.99414
410.291	3034.21953
410.506	3244.61736
410.721	2624.81171
410.936	3029.48886
411.15	2993.9711
411.365	3371.48909
411.58	3727.2006
411.795	3208.62835
412.01	3434.29174
412.225	3578.17004
412.439	3353.73077
412.654	3282.47053
412.869	3622.41015
413.084	3638.93407
413.299	2954.27015
413.513	2974.96861
413.728	3389.03501
413.943	3672.0653
414.157	3203.7195
414.372	3140.84883
414.587	3882.97671
414.801	3766.90961
415.016	3349.76311
415.231	3413.19015
415.445	3478.46884
415.66	3568.02818
415.874	3290.5108
416.089	3396.78424
416.304	3837.48922
416.518	4638.96916
416.733	4631.48979
416.947	3224.71312
417.162	4334.13301
417.376	3984.23321
417.59	4333.7125
417.805	3820.96125
418.019	4046.28394
418.234	3815.22442
418.448	3878.42851
418.663	3785.7924
418.877	4115.5661
419.091	4149.31208
419.306	3991.30445
419.52	3893.83168
419.734	4791.8284
419.949	5066.61454
420.163	3849.73235
420.377	3460.47685
420.591	4484.3286
420.806	4536.46971
421.02	3675.93112
421.234	3873.31819
421.448	4560.51166
421.663	3974.19297
421.877	3841.79406
422.091	3969.57949
422.305	4822.81883
422.519	4821.34331
422.733	4194.46188
422.947	3987.85319
423.161	4152.49254
423.376	4099.56168
423.59	4998.40587
423.804	4011.56963
424.018	4616.43475
424.232	4241.34033
424.446	4891.4814
424.66	4580.05663
424.874	4214.02104
425.088	4367.93741
425.302	9642.99804
425.515	4376.96606
425.729	4618.36354
425.943	4848.24216
426.157	4522.2494
426.371	4829.34131
426.585	4547.47204
426.799	4485.78588
427.013	5170.08818
427.226	4575.93966
427.44	4335.82817
427.654	5501.09816
427.868	6095.35679
428.081	4186.48512
428.295	4667.39009
428.509	4278.36605
428.723	4599.09894
428.936	4054.50305
429.15	4611.19846
429.364	5670.78085
429.577	3998.93701
429.791	4346.59101
430.005	4811.61122
430.218	4592.50864
430.432	4256.29178
430.645	4542.00205
430.859	4675.46241
431.073	4539.85395
431.286	4448.55352
431.5	4519.18856
431.713	5039.11592
431.927	4715.63246
432.14	4595.02433
432.354	4166.7963
432.567	4629.78
432.781	4490.98956
432.994	4589.23252
433.207	4227.43957
433.421	4542.04886
433.634	5307.92783
433.848	6757.52018
434.061	4485.414
434.274	4670.63563
434.488	4559.18803
434.701	6584.75127
434.914	5311.76682
435.127	5097.70235
435.341	5762.04231
435.554	4403.66285
435.767	4920.25297
435.98	4769.65176
436.194	4799.21134
436.407	4449.34988
436.62	4990.18653
436.833	5215.11105
437.046	4813.35112
437.259	5243.64537
437.473	5796.39566
437.686	5199.34385
437.899	6249.28704
438.112	5597.9365
438.325	4565.02336
438.538	5165.09555
438.751	5569.32577
438.964	5198.72101
439.177	6069.08147
439.39	5439.90958
439.603	5967.34303
439.816	5628.20153
440.029	5200.50054
440.242	6065.22533
440.455	6287.29841
440.668	5861.545
440.881	5131.53909
441.094	5848.07486
441.306	5794.52189
441.519	6326.44967
441.732	5953.08897
441.945	6451.5851
442.158	6189.7951
442.37	5974.33615
442.583	6235.46702
442.796	6432.14333
443.009	6348.14018
443.222	6461.36979
443.434	6246.88616
443.647	6534.27108
443.86	7423.13311
444.072	7864.07363
444.285	6420.73757
444.498	7241.34007
444.71	6687.62084
444.923	6710.25012
445.136	6709.16997
445.348	6782.48933
445.561	6547.18406
445.773	6716.94358
445.986	6639.42287
446.198	7361.88175
446.411	7045.0919
446.623	7496.71993
446.836	6963.15577
447.048	7338.36267
447.261	7818.84857
447.473	7633.95998
447.686	7583.23395
447.898	8492.90268
448.11	8186.20533
448.323	26966.67425
448.535	7528.50032
448.748	7547.45698
448.96	7811.6898
449.172	7762.13857
449.385	7359.3859
449.597	8056.72775
449.809	7487.4394
450.021	7634.91881
450.234	8178.71963
450.446	8502.47239
450.658	7820.24894
450.87	7580.63793
451.083	8769.12196
451.295	7922.81633
451.507	7898.38748
451.719	7671.56532
451.931	8034.90166
452.143	8121.74235
452.356	7898.80954
452.568	8028.66592
452.78	8677.98421
452.992	8083.46338
453.204	8807.54242
453.416	7985.60017
453.628	7981.30926
453.84	8443.46686
454.052	8363.04333
454.264	8440.51872
454.476	8290.44041
454.688	9173.07945
454.9	8581.25464
455.112	8121.23973
455.324	8100.84665
455.536	8672.24125
455.747	8412.99984
455.959	8508.95671
456.171	8628.44174
456.383	8244.18115
456.595	9154.35361
456.807	8013.26924
457.018	8243.17184
457.23	8543.11008
457.442	8781.34911
457.654	9328.40162
457.865	8397.10064
458.077	10289.72672
458.289	8084.99634
458.501	8373.2783
458.712	8513.00232
458.924	9929.74064
459.136	8934.36337
459.347	8312.16131
459.559	8349.46756
459.77	8906.95436
459.982	9038.5786
460.194	9041.42164
460.405	8263.19733
460.617	8930.56562
460.828	9320.14269
461.04	9078.58322
461.251	9059.93343
461.463	10398.91648
461.674	10422.85593
461.886	9671.7501
462.097	8817.34075
462.309	9677.19157
462.52	9534.86392
462.731	9836.16992
462.943	9815.16181
463.154	9821.83375
463.366	10397.54673
463.577	10138.67582
463.788	10018.2286
464	9777.29066
464.211	9942.21725
464.422	10592.8726
464.634	10033.68992
464.845	10715.5882
465.056	10751.97923
465.267	10464.39913
465.478	9521.73052
465.69	10825.52052
465.901	10984.60245
466.112	10170.17143
466.323	10616.94373
466.534	10797.03755
466.745	12315.13877
466.957	11218.79006
467.168	10545.99412
467.379	11367.21182
467.59	10578.19713
467.801	10667.14879
468.012	10877.73881
468.223	11082.11325
468.434	11050.58642
468.645	11373.3394
468.856	11919.40607
469.067	12446.31136
469.278	12051.75608
469.489	11555.82556
469.7	10918.45885
469.911	11398.46738
470.122	11871.73883
470.333	12333.10642
470.543	11182.95322
470.754	12410.95399
470.965	12607.28079
471.176	11925.53787
471.387	12167.64475
471.598	12031.69635
471.808	12493.26879
472.019	12010.37937
472.23	12106.81861
472.441	12490.57999
472.651	12334.4899
472.862	12056.44555
473.073	12888.91474
473.283	13072.32588
473.494	12957.32829
473.705	12457.9331
473.915	13344.27145
474.126	13867.23977
474.337	13246.83027
474.547	13699.13532
474.758	13423.37035
474.968	14606.59017
475.179	13865.81178
475.389	14603.81304
475.6	13529.3758
475.81	15026.32662
476.021	14243.68052
476.231	14263.60991
476.442	13955.93276
476.652	14563.5413
476.863	14452.01918
477.073	14080.21549
477.284	14363.31293
477.494	15047.02999
477.704	15349.5688
477.915	15662.04627
478.125	15036.34869
478.335	15795.18494
478.546	16804.426
478.756	15482.65802
478.966	15570.88368
479.177	15859.46333
479.387	16965.54513
479.597	16506.90464
479.807	16375.24061
480.018	16670.75974
480.228	16682.46291
480.438	16527.25975
480.648	16977.25167
480.858	18701.37454
481.068	17010.67195
481.279	18141.59939
481.489	17981.58042
481.699	17861.17663
481.909	17656.99861
482.119	18818.5907
482.329	18744.21329
482.539	19008.05106
482.749	19720.44434
482.959	18614.7392
483.169	19589.74764
483.379	19600.57097
483.589	19861.17742
483.799	19018.99079
484.009	19222.8345
484.219	19606.60286
484.429	20368.84993
484.639	19455.35801
484.849	19651.31301
485.059	20767.39211
485.268	20924.09541
485.478	20779.84444
485.688	20675.41064
485.898	20353.07701
486.108	20933.78771
486.317	22129.61173
486.527	21215.68096
486.737	21846.18193
486.947	21831.0931
487.156	22329.92277
487.366	21456.86624
487.576	21666.96283
487.785	21963.09844
487.995	21823.51974
488.205	21815.01199
488.414	22289.10787
488.624	22720.75707
488.834	21961.02278
489.043	22196.61626
489.253	22591.76697
489.462	23034.45069
489.672	22721.48042
489.882	23473.73166
490.091	23427.36766
490.301	23234.60498
490.51	23391.30586
490.72	23856.45386
490.929	24100.74701
491.138	24474.40279
491.348	24303.9964
491.557	23546.37017
491.767	24936.34094
491.976	24278.8317
492.185	23903.56067
492.395	24117.0394
492.604	24882.20292
492.813	24942.75915
493.023	25193.65684
493.232	24580.29393
493.441	24647.22601
493.651	25488.73053
493.86	24887.96273
494.069	25114.31845
494.278	25570.33797
494.488	25605.68673
494.697	25816.30215
494.906	25639.03802
495.115	26141.27572
495.324	26077.60547
495.533	26059.65144
495.743	26372.50056
495.952	26857.68678
496.161	26917.76901
496.37	26743.43184
496.579	27289.15847
496.788	27381.35542
496.997	28048.59255
497.206	27541.04507
497.415	28044.04538
497.624	27823.34417
497.833	28583.06874
498.042	28511.63158
498.251	29863.95435
498.46	28671.27303
498.669	28909.40979
498.878	28731.2872
499.087	28674.44561
499.296	29175.55519
499.504	29543.33292
499.713	28648.6786
499.922	29317.68387
500.131	29738.9191
500.34	30492.1951
500.549	29700.94594
500.757	29230.66189
500.966	29651.2999
501.175	29942.22919
501.384	30249.61231
501.592	29735.04234
501.801	30760.25258
502.01	30342.4323
502.218	30385.82472
502.427	30622.94363
502.636	30185.4835
502.844	30733.51905
503.053	30642.04705
503.262	30225.34113
503.47	31075.22782
503.679	30614.45972
503.887	30551.04357
504.096	31018.2086
504.304	30787.25854
504.513	30855.61672
504.721	31341.46219
504.93	31007.47562
505.138	31251.50012
505.347	31422.00213
505.555	30572.42844
505.764	30987.52204
505.972	31313.33897
506.18	31068.92909
506.389	30792.76351
506.597	30832.40668
506.806	30951.93186
507.014	31325.39357
507.222	31226.93131
507.431	31003.63815
507.639	31040.26876
507.847	31521.18628
508.055	31219.91123
508.264	31969.76004
508.472	32174.91731
508.68	31781.91048
508.888	31893.81263
509.096	31737.48074
509.305	32347.09348
509.513	31990.80916
509.721	32003.68836
509.929	32267.38648
510.137	31842.39437
510.345	32008.77416
510.553	32022.01507
510.762	31921.93322
510.97	32056.331
511.178	32416.08556
511.386	32699.0503
511.594	32318.42623
511.802	32370.98629
512.01	32139.11172
512.218	32314.42966
512.426	32376.70231
512.634	33433.23416
512.842	32600.5303
513.049	32976.80448
513.257	32334.32802
513.465	32887.72442
513.673	32775.12549
513.881	32703.72103
514.089	32753.44684
514.297	33038.10709
514.504	32653.71829
514.712	32987.16181
514.92	33009.78762
515.128	33170.5643
515.336	33145.05517
515.543	33370.93011
515.751	33171.47076
515.959	33462.50203
516.166	33162.18908
516.374	33306.21063
516.582	33570.12285
516.789	33419.43751
516.997	33531.03112
517.205	33331.77219
517.412	33381.86329
517.62	33514.37665
517.827	33495.33942
518.035	33350.23874
518.243	33444.15964
518.45	33380.8454
518.658	33432.54401
518.865	33254.77261
519.073	33193.67556
519.28	33770.72291
519.488	33266.13393
519.695	33507.77362
519.902	33204.76278
520.11	33370.48645
520.317	33387.43259
520.525	33461.66156
520.732	33147.11453
520.939	33452.10857
521.147	33163.0763
521.354	33415.80934
521.561	33170.47233
521.769	33239.72436
521.976	33170.61935
522.183	33226.25224
522.391	33179.44403
522.598	33304.43368
522.805	33432.22594
523.012	33413.23697
523.219	33556.00553
523.427	33406.01278
523.634	33478.82279
523.841	33495.33942
524.048	33477.10765
524.255	33528.25245
524.462	33667.17399
524.669	33501.5907
524.877	33720.02751
525.084	33580.16023
525.291	33597.75866
525.498	33525.15494
525.705	33571.8081
525.912	33835.97257
526.119	33777.70908
526.326	33804.27494
526.533	33830.04025
526.74	33796.19854
526.947	33898.08518
527.153	33784.64953
527.36	34030.10204
527.567	33895.32082
527.774	34112.53168
527.981	33878.50202
528.188	34054.77206
528.395	33993.82849
528.602	34048.41853
528.808	34036.78731
529.015	33964.49334
529.222	34103.74203
529.429	34031.97552
529.635	34106.82493
529.842	34142.67797
530.049	34236.00897
530.256	34205.48566
530.462	34241.88002
530.669	34226.32832
530.876	34325.90538
531.082	34225.97038
531.289	34346.08076
531.495	34245.02631
531.702	34346.37652
531.909	34305.88185
532.115	34432.78567
532.322	34376.18873
532.528	34479.89419
532.735	34407.41975
532.941	34456.64952
533.148	34470.31178
533.354	34487.80394
533.561	34448.75321
533.767	34430.11641
533.974	34422.56245
534.18	34386.16394
534.387	34406.71144
534.593	34391.32741
534.799	34362.70656
535.006	34344.49247
535.212	34358.37094
535.418	34446.44066
535.625	34433.50459
535.831	34481.1926
536.037	34440.9154
536.244	34503.45486
536.45	34430.3434
536.656	34521.08729
536.862	34438.24808
537.068	34504.22744
537.275	34494.59881
537.481	34541.93377
537.687	34504.99214
537.893	34573.23485
538.099	34537.83726
538.305	34591.35333
538.512	34576.73944
538.718	34658.15202
538.924	34598.53925
539.13	34657.82053
539.336	34677.62547
539.542	34705.93876
539.748	34670.53216
539.954	34695.36794
540.16	34697.9787
540.366	34722.51836
540.572	34720.96846
540.778	34746.69389
540.984	34720.91851
541.19	34749.25057
541.396	34738.62727
541.602	34743.1906
541.807	34772.89256
542.013	34721.08946
542.219	34775.62928
542.425	34705.94027
542.631	34786.3214
542.837	34685.56166
543.042	34722.72719
543.248	34658.25311
543.454	34761.36685
543.66	34719.90243
543.865	34737.07121
544.071	34725.06729
544.277	34703.38587
544.483	34734.33734
544.688	34639.13603
544.894	34748.53389
545.1	34620.13877
545.305	34791.14497
545.511	34687.10708
545.716	34735.29406
545.922	34715.08658
546.128	34762.13897
546.333	34753.58874
546.539	34771.34787
546.744	34744.01939
546.95	34758.39642
547.155	34760.35687
547.361	34749.03237
547.566	34790.54604
547.772	34780.08145
547.977	34731.51007
548.182	34741.72751
548.388	34718.84955
548.593	34770.39792
548.799	34745.32885
549.004	34764.28255
549.209	34746.75149
549.415	34768.03569
549.62	34747.9992
549.825	34829.8178
550.031	34782.2203
550.236	34770.17347
550.441	34776.63932
550.646	34779.49944
550.852	34805.98925
551.057	34819.4735
551.262	34822.86698
551.467	34796.90625
551.672	34778.01861
551.878	34807.66396
552.083	34801.36806
552.288	34841.3398
552.493	34830.52811
552.698	34848.05525
552.903	34857.91733
553.108	34857.26493
553.313	34858.92745
553.518	34870.57321
553.723	34838.25442
553.928	34852.7674
554.133	34843.30509
554.338	34862.37987
554.543	34856.84753
554.748	34865.59524
554.953	34868.43407
555.158	34866.841
555.363	34839.85584
555.568	34882.33875
555.773	34869.44422
555.978	34912.88713
556.182	34857.04317
556.387	34916.09228
556.592	34862.32929
556.797	34924.23201
557.002	34902.6023
557.206	34925.30326
557.411	34933.44296
557.616	34942.59605
557.821	34894.37515
558.025	34944.27651
558.23	34879.37368
558.435	34922.31167
558.64	34955.49279
558.844	34978.72983
559.049	34960.07113
559.253	35015.9338
559.458	34941.70063
559.663	34977.4998
559.867	34983.89983
560.072	34999.71043
560.276	34984.20069
560.481	34991.83416
560.685	34999.89435
560.89	35024.26158
561.094	34978.42352
561.299	34992.25938
561.503	35001.27931
561.708	35033.54155
561.912	35035.24747
562.117	35020.20066
