Data from 1003 pointing at moon_Subt2__12__22-14-42-087.txt Node

Date: Tue Oct 07 22:14:42 EDT 2025
User: brett
Spectrometer: USB4F03499
Trigger mode: 4
Integration Time (sec): 2.000000E-1
Scans to average: 1
Electric dark correction enabled: true
Nonlinearity correction enabled: true
Boxcar width: 0
XAxis mode: Wavelengths
Number of Pixels in Spectrum: 3648
>>>>>Begin Spectral Data<<<<<
345.386	-229.15091
345.605	-229.15091
345.824	-229.15091
346.044	-150.97709
346.263	-190.68116
346.482	39.11732
346.701	-28.59459
346.92	-8.28705
347.139	26.72218
347.358	44.74281
347.577	45.78367
347.796	21.07378
348.015	-20.68824
348.234	-28.57468
348.453	-8.28059
348.672	-30.80564
348.891	-52.31733
349.11	-31.98638
349.329	84.25286
349.548	-3.76669
349.767	21.04528
349.986	53.73757
350.205	35.73701
350.424	-63.64107
350.643	-69.31811
350.862	19.91364
351.08	98.68091
351.299	102.13003
351.518	-12.78785
351.737	-39.86804
351.956	19.91517
352.174	30.0949
352.393	-24.0694
352.612	3.00879
352.831	26.67779
353.049	-29.7216
353.268	40.21696
353.487	33.47604
353.705	-94.16764
353.924	24.44785
354.143	-1.50376
354.361	30.10307
354.58	-12.77897
354.798	-31.98142
355.017	51.50269
355.236	39.11127
355.454	9.78312
355.673	-36.48089
355.891	59.33676
356.11	40.23093
356.328	3.00856
356.547	92.12844
356.765	-1.50329
356.984	59.38011
357.202	-4.88787
357.42	6.39678
357.639	44.72383
357.857	58.256
358.076	13.14496
358.294	4.13461
358.512	1.88082
358.731	102.12612
358.949	-27.47706
359.167	87.48463
359.386	67.15269
359.604	-21.82557
359.822	81.88551
360.04	53.70866
360.259	49.29477
360.477	45.83985
360.695	24.43462
360.913	60.42986
361.131	103.29013
361.35	36.83209
361.568	-0.37615
361.786	16.53303
362.004	150.45517
362.222	3.00821
362.44	95.35678
362.658	-22.93184
362.876	127.04358
363.094	86.39299
363.312	80.8255
363.53	111.11181
363.749	61.65645
363.967	35.68878
364.184	18.7724
364.402	19.90065
364.62	111.24838
364.838	-4.88976
365.056	-10.53036
365.274	90.87607
365.492	50.36421
365.71	16.54195
365.928	89.71
366.146	52.57283
366.364	134.748
366.581	52.64574
366.799	55.9923
367.017	50.35257
367.235	19.91671
367.453	120.16696
367.67	79.57991
367.888	24.46017
368.106	16.54899
368.323	180.69232
368.541	44.76532
368.759	22.18683
368.977	69.41686
369.194	85.23833
369.412	15.41677
369.629	36.86912
369.847	167.27258
370.065	49.22622
370.282	27.8077
370.5	90.89001
370.717	35.68878
370.935	86.38636
371.152	50.38559
371.37	95.37869
371.588	133.69103
371.805	22.16716
372.022	52.59705
372.24	120.12096
372.457	19.89532
372.675	95.452
372.892	44.73245
373.11	115.72284
373.327	-22.93538
373.544	-6.01665
373.762	71.69286
373.979	158.30735
374.196	31.19392
374.414	136.02785
374.631	51.47888
374.848	81.91699
375.066	151.85126
375.283	97.60558
375.5	-3.76172
375.717	63.86052
375.935	18.79405
376.152	110.06367
376.369	30.02551
376.586	41.35491
376.803	143.67957
377.02	99.83895
377.238	60.47618
377.455	68.38673
377.672	177.46334
377.889	84.26591
378.106	24.42803
378.323	26.68601
378.54	39.10824
378.757	213.26338
378.974	63.89246
379.191	143.81136
379.408	-10.5271
379.625	89.79948
379.842	73.9648
380.059	-8.26747
380.276	62.74683
380.493	54.86177
380.71	96.51447
380.927	157.35322
381.143	103.17956
381.36	73.98465
381.577	124.66371
381.794	168.48438
382.011	158.51332
382.228	134.76345
382.444	187.4759
382.661	68.37884
382.878	84.09733
383.095	35.68467
383.311	98.79807
383.528	85.2514
383.745	1.88148
383.962	69.48328
384.178	57.04633
384.395	61.64218
384.612	76.32608
384.828	215.73351
385.045	39.09315
385.261	157.03574
385.478	77.47352
385.695	71.71206
385.911	119.09752
386.128	84.21053
386.344	89.82368
386.561	47.00784
386.777	114.5275
386.994	148.28888
387.21	148.35139
387.427	98.82466
387.643	8.64843
387.86	64.97126
388.076	93.09
388.292	69.40627
388.509	149.41228
388.725	110.11873
388.942	116.82981
389.158	69.48595
389.374	50.34096
389.591	125.89413
389.807	55.98368
390.023	175.0856
390.239	140.23123
390.456	144.97396
390.672	143.70148
390.888	13.15558
391.104	201.04329
391.321	139.23621
391.537	54.86599
391.753	137.02628
391.969	237.01626
392.185	54.79659
392.401	79.64095
392.618	113.33811
392.834	187.53291
393.05	131.26224
393.266	194.32125
393.482	140.31661
393.698	162.96463
393.914	216.86325
394.13	130.23388
394.346	231.39507
394.562	111.09482
394.778	76.25555
394.994	106.5828
395.21	154.99313
395.426	158.41616
395.642	57.0988
395.858	99.96157
396.073	176.19366
396.289	172.994
396.505	115.58105
396.721	103.24264
396.937	125.66774
397.153	163.93137
397.369	147.21054
397.584	94.31553
397.8	147.06991
398.016	199.79277
398.232	171.62997
398.447	234.49935
398.663	147.14854
398.879	57.12516
399.094	200.86788
399.31	175.13881
399.526	161.7237
399.741	178.41593
399.957	132.50604
400.173	46.93912
400.388	139.09316
400.604	120.09801
400.82	136.84884
401.035	114.4793
401.251	261.64984
401.466	86.36648
401.682	162.73477
401.897	218.8649
402.113	178.25421
402.328	154.98721
402.544	138.08657
402.759	162.6361
402.974	193.01612
403.19	236.90831
403.405	232.32189
403.621	196.57962
403.836	222.06594
404.051	160.52765
404.267	159.46013
404.482	241.4159
404.697	219.85214
404.913	210.0375
405.128	164.94078
405.343	261.63992
405.559	220.07682
405.774	172.69219
405.989	253.77269
406.204	288.4227
406.42	250.14827
406.635	245.83999
406.85	392.48824
407.065	229.16222
407.28	108.83457
407.495	190.78179
407.71	225.55124
407.926	236.74704
408.141	239.13033
408.356	278.00008
408.571	212.998
408.786	208.77351
409.001	273.71548
409.216	232.33068
409.431	260.20563
409.646	305.15883
409.861	282.91598
410.076	316.19043
410.291	282.59623
410.506	251.40927
410.721	226.75678
410.936	307.22081
411.15	269.19159
411.365	318.18573
411.58	319.50449
411.795	257.04427
412.01	317.52177
412.225	241.25152
412.439	241.10608
412.654	316.16673
412.869	346.26244
413.084	252.55722
413.299	233.23047
413.513	261.4224
413.728	228.90176
413.943	286.94814
414.157	321.85799
414.372	298.1835
414.587	312.64109
414.801	252.17722
415.016	339.74707
415.231	169.42641
415.445	249.14227
415.66	279.80324
415.874	259.04829
416.089	300.62017
416.304	262.47187
416.518	346.39188
416.733	320.40536
416.947	287.05574
417.162	351.74729
417.376	308.38398
417.59	298.19467
417.805	327.25763
418.019	268.12385
418.234	252.21503
418.448	301.77173
418.663	266.12816
418.877	339.48044
419.091	298.27294
419.306	357.34814
419.52	311.67649
419.734	329.40343
419.949	416.51705
420.163	294.92115
420.377	363.23344
420.591	353.19187
420.806	263.25451
421.02	273.32592
421.234	329.40343
421.448	327.36785
421.663	293.70465
421.877	423.41485
422.091	252.24342
422.305	373.28572
422.519	349.80464
422.733	339.53111
422.947	325.20821
423.161	359.57772
423.376	300.12573
423.59	481.70449
423.804	370.94428
424.018	308.41871
424.232	456.5456
424.446	382.63838
424.66	365.36884
424.874	318.53134
425.088	295.06533
425.302	559.75936
425.515	372.4356
425.729	430.88808
425.943	362.80036
426.157	315.08551
426.371	409.65562
426.585	470.37137
426.799	446.14452
427.013	315.67197
427.226	376.28047
427.44	297.94963
427.654	357.33483
427.868	458.80266
428.081	338.5674
428.295	339.74707
428.509	395.36138
428.723	451.82586
428.936	339.19017
429.15	433.35336
429.364	405.35417
429.577	295.88319
429.791	366.78604
430.005	464.58354
430.218	327.13548
430.432	414.56815
430.645	396.43101
430.859	335.03106
431.073	343.80086
431.286	356.35285
431.5	336.2974
431.713	428.29979
431.927	408.66387
432.14	381.03441
432.354	347.52069
432.567	347.23544
432.781	324.90422
432.994	414.07605
433.207	437.65847
433.421	405.279
433.634	361.84755
433.848	428.64748
434.061	402.07354
434.274	398.77683
434.488	377.84524
434.701	455.97508
434.914	393.78056
435.127	379.76383
435.341	426.80247
435.554	361.63236
435.767	434.46619
435.98	426.3281
436.194	464.70407
436.407	362.8408
436.62	362.77342
436.833	393.04601
437.046	421.64555
437.259	434.17677
437.473	425.35741
437.686	462.20565
437.899	481.00968
438.112	462.01803
438.325	463.40296
438.538	445.6253
438.751	389.71928
438.964	733.17986
439.177	421.8166
439.39	513.54685
439.603	438.2857
439.816	453.64737
440.029	423.05383
440.242	632.50729
440.455	440.07869
440.668	509.97131
440.881	470.03845
441.094	415.05066
441.306	568.03431
441.519	617.91097
441.732	612.47965
441.945	475.56039
442.158	589.00694
442.37	542.02586
442.583	509.04869
442.796	553.29263
443.009	590.70506
443.222	491.68265
443.434	530.76259
443.647	592.00591
443.86	565.05184
444.072	558.22396
444.285	590.96338
444.498	625.02238
444.71	552.92871
444.923	596.58655
445.136	581.18722
445.348	531.17126
445.561	574.53853
445.773	568.91353
445.986	530.93744
446.198	638.70555
446.411	569.73017
446.623	627.72675
446.836	627.46147
447.048	595.13221
447.261	653.99552
447.473	688.11273
447.686	652.77214
447.898	701.90421
448.11	664.73266
448.323	1412.0577
448.535	628.24836
448.748	660.07719
448.96	630.61917
449.172	708.74718
449.385	586.9154
449.597	691.34922
449.809	614.164
450.021	685.90505
450.234	662.26139
450.446	743.24444
450.658	686.61332
450.87	526.13528
451.083	737.37672
451.295	764.05106
451.507	702.43373
451.719	618.14085
451.931	730.34566
452.143	745.14056
452.356	678.07914
452.568	667.75665
452.78	841.93775
452.992	728.61459
453.204	776.87407
453.416	687.60557
453.628	694.96505
453.84	734.07163
454.052	717.10888
454.264	752.20671
454.476	747.42356
454.688	760.93814
454.9	773.3011
455.112	731.1855
455.324	647.32499
455.536	709.28264
455.747	731.05428
455.959	839.1403
456.171	858.00679
456.383	708.69635
456.595	754.22068
456.807	800.82445
457.018	686.86036
457.23	785.30177
457.442	747.26332
457.654	813.44831
457.865	788.37889
458.077	785.33976
458.289	743.68416
458.501	783.94883
458.712	814.63443
458.924	743.23019
459.136	815.01142
459.347	810.00358
459.559	775.22633
459.77	855.59118
459.982	744.11891
460.194	876.45529
460.405	749.70691
460.617	884.8926
460.828	804.56671
461.04	822.67122
461.251	885.52207
461.463	1009.27759
461.674	878.09258
461.886	984.51667
462.097	763.94191
462.309	931.10374
462.52	884.39444
462.731	875.85429
462.943	906.14635
463.154	828.77676
463.366	973.19706
463.577	895.71463
463.788	931.87251
464	951.19008
464.211	927.88137
464.422	946.47497
464.634	927.52302
464.845	953.37479
465.056	990.63115
465.267	979.14934
465.478	872.52799
465.69	948.93214
465.901	998.17907
466.112	1014.43412
466.323	888.43451
466.534	1085.4985
466.745	1062.93141
466.957	982.63631
467.168	986.53247
467.379	993.11005
467.59	1002.1541
467.801	1033.42054
468.012	1093.92477
468.223	1112.78666
468.434	1021.20062
468.645	1066.49965
468.856	1158.59264
469.067	1035.19496
469.278	1077.56077
469.489	1106.45504
469.7	1038.14833
469.911	1017.84579
470.122	1074.5626
470.333	1084.90778
470.543	1048.52534
470.754	1158.12398
470.965	1145.53292
471.176	1103.62544
471.387	1264.18707
471.598	1145.82016
471.808	1130.52225
472.019	1157.12871
472.23	1091.44213
472.441	1145.15027
472.651	1144.82995
472.862	1167.17716
473.073	1353.71365
473.283	1148.81217
473.494	1222.39617
473.705	1182.0809
473.915	1160.15643
474.126	1389.52936
474.337	1196.90105
474.547	1270.62597
474.758	1312.66926
474.968	1291.72123
475.179	1248.66827
475.389	1361.5226
475.6	1480.60957
475.81	1282.90423
476.021	1433.7246
476.231	1379.09747
476.442	1392.72879
476.652	1317.05067
476.863	1343.92004
477.073	1275.82794
477.284	1389.23939
477.494	1418.25857
477.704	1512.58546
477.915	1436.52252
478.125	1332.19104
478.335	1438.60179
478.546	1505.23407
478.756	1519.83374
478.966	1512.88542
479.177	1408.95621
479.387	1565.91266
479.597	1482.81733
479.807	1501.2167
480.018	1566.73035
480.228	1558.62775
480.438	1546.68967
480.648	1572.16958
480.858	1751.29999
481.068	1674.85075
481.279	1603.57748
481.489	1614.22789
481.699	1633.13427
481.909	1607.88006
482.119	1789.81868
482.329	1682.73533
482.539	1875.29684
482.749	1703.32828
482.959	1718.21644
483.169	1806.14437
483.379	1813.34664
483.589	1815.16841
483.799	1847.0114
484.009	1798.50157
484.219	1851.01146
484.429	1850.05982
484.639	1804.31837
484.849	1770.41507
485.059	1926.38739
485.268	1934.9252
485.478	1931.17585
485.688	1894.23124
485.898	1952.10021
486.108	1954.35841
486.317	2067.02464
486.527	1985.30472
486.737	2077.69731
486.947	1985.06555
487.156	2152.55964
487.366	2003.23623
487.576	2013.83452
487.785	2088.48211
487.995	2076.53915
488.205	2073.03315
488.414	1956.22594
488.624	2094.36508
488.834	2007.49827
489.043	2071.67134
489.253	2045.45568
489.462	2030.93202
489.672	2146.51803
489.882	2079.53666
490.091	2107.62276
490.301	2071.95891
490.51	2134.10444
490.72	2076.66755
490.929	2085.68915
491.138	2261.20514
491.348	2153.28979
491.557	2112.37737
491.767	2212.27022
491.976	2249.89386
492.185	2121.74763
492.395	2255.28118
492.604	2245.9297
492.813	2262.95367
493.023	2241.55215
493.232	2137.55133
493.441	2248.11748
493.651	2311.10698
493.86	2260.68655
494.069	2286.71108
494.278	2274.08626
494.488	2392.52077
494.697	2336.29344
494.906	2360.91599
495.115	2346.64895
495.324	2433.19573
495.533	2339.82425
495.743	2435.48961
495.952	2393.38401
496.161	2413.71651
496.37	2485.00511
496.579	2456.91799
496.788	2431.95543
496.997	2503.92349
497.206	2484.87751
497.415	2475.19708
497.624	2484.98862
497.833	2551.85867
498.042	2511.06439
498.251	2568.01254
498.46	2510.01045
498.669	2524.6342
498.878	2557.41233
499.087	2440.76422
499.296	2577.41641
499.504	2588.56839
499.713	2538.99161
499.922	2582.69281
500.131	2704.2131
500.34	2613.62689
500.549	2624.57873
500.757	2529.8066
500.966	2552.14913
501.175	2498.96849
501.384	2723.63707
501.592	2701.40835
501.801	2715.29801
502.01	2687.60623
502.218	2682.71113
502.427	2655.98059
502.636	2714.52673
502.844	2665.24579
503.053	2682.39849
503.262	2559.21865
503.47	2583.51654
503.679	2690.33036
503.887	2749.37709
504.096	2748.60007
504.304	2625.09381
504.513	2658.58662
504.721	2758.9972
504.93	2679.56005
505.138	2689.2383
505.347	2764.35947
505.555	2710.90447
505.764	2630.14116
505.972	2670.88614
506.18	2709.59316
506.389	2576.3639
506.597	2684.88411
506.806	2667.45967
507.014	2736.56695
507.222	2672.82922
507.431	2635.61078
507.639	2641.96388
507.847	2719.22245
508.055	2757.38921
508.264	2750.35443
508.472	2763.52207
508.68	2786.83335
508.888	2692.00643
509.096	2633.40332
509.305	2775.80654
509.513	2699.09251
509.721	2740.11236
509.929	2729.73881
510.137	2671.00033
510.345	2702.45563
510.553	2719.99291
510.762	2765.12384
510.97	2710.98323
511.178	2804.64964
511.386	2796.42958
511.594	2844.83678
511.802	2702.45791
512.01	2853.05793
512.218	2751.5876
512.426	2796.58469
512.634	2848.05034
512.842	2877.35402
513.049	2816.58514
513.257	2776.67248
513.465	2945.04498
513.673	2741.95319
513.881	2762.78007
514.089	2797.55306
514.297	2819.87616
514.504	2724.15385
514.712	2825.59986
514.92	2820.75889
515.128	2947.52191
515.336	2883.65023
515.543	2914.47765
515.751	2850.23214
515.959	2987.12125
516.166	2831.62954
516.374	2904.46595
516.582	2947.47866
516.789	2913.56697
516.997	2897.33118
517.205	2833.80366
517.412	2899.28593
517.62	2976.61153
517.827	2942.7041
518.035	2900.27899
518.243	2893.88978
518.45	2820.12628
518.658	2828.65062
518.865	2915.13575
519.073	2812.94525
519.28	2930.16084
519.488	2921.63097
519.695	2851.4322
519.902	2829.30245
520.11	2735.45758
520.317	3028.6793
520.525	2936.30555
520.732	2820.35745
520.939	2816.99233
521.147	2855.72276
521.354	2772.55171
521.561	2919.8103
521.769	2882.50192
521.976	2809.31979
522.183	2842.20754
522.391	2724.17883
522.598	2874.54297
522.805	2898.0473
523.012	2825.85383
523.219	2841.94959
523.427	2994.54145
523.634	2799.8096
523.841	2865.94418
524.048	2922.87881
524.255	2889.90462
524.462	2874.7885
524.669	3010.08799
524.877	2964.44293
525.084	2909.63275
525.291	2816.81207
525.498	3002.15381
525.705	2872.55117
525.912	2923.63892
526.119	2891.16409
526.326	2882.05111
526.533	2923.88812
526.74	2953.95562
526.947	3030.32005
527.153	2935.1023
527.36	3090.03671
527.567	2982.81314
527.774	3061.19262
527.981	2954.5755
528.188	3090.04381
528.395	2965.35702
528.602	3143.95984
528.808	2987.25782
529.015	3012.65752
529.222	3010.99234
529.429	3040.87987
529.635	2987.73671
529.842	3039.38968
530.049	3025.37821
530.256	2946.17981
530.462	2999.62048
530.669	3029.36173
530.876	3097.08078
531.082	3078.30951
531.289	3076.04098
531.495	3112.71387
531.702	3067.7084
531.909	3134.23904
532.115	3115.75037
532.322	3065.63472
532.528	3188.8466
532.735	3013.07911
532.941	3074.53562
533.148	3017.3687
533.354	3105.24204
533.561	3102.63586
533.767	3010.34199
533.974	3049.47916
534.18	3055.77756
534.387	3083.64005
534.593	3041.22039
534.799	3081.47053
535.006	3133.71981
535.212	2995.91676
535.418	3108.21144
535.625	3053.73606
535.831	3072.66456
536.037	3181.33446
536.244	3149.34096
536.45	2986.28051
536.656	3134.41744
536.862	3140.23814
537.068	3022.14031
537.275	3087.44176
537.481	3263.8915
537.687	3182.33465
537.893	3154.19729
538.099	3093.0921
538.305	3170.31828
538.512	3177.18459
538.718	3060.43731
538.924	3249.03685
539.13	3176.57035
539.336	3055.89155
539.542	3210.97106
539.748	3231.51646
539.954	3035.1815
540.16	3257.32082
540.366	3101.26464
540.572	3102.72869
540.778	3104.19978
540.984	3161.38946
541.19	3058.43746
541.396	3076.51686
541.602	3117.92074
541.807	3091.78331
542.013	3146.23664
542.219	3154.14572
542.425	3128.33742
542.631	3135.88714
542.837	3104.30342
543.042	3234.01495
543.248	3101.25551
543.454	3181.45127
543.66	3107.18176
543.865	3119.39934
544.071	3126.68821
544.277	3101.15958
544.483	3092.91999
544.688	3223.46511
544.894	3061.30913
545.1	3209.04056
545.305	3110.38021
545.511	3116.62196
545.716	3192.94689
545.922	3206.65054
546.128	3028.50275
546.333	3159.75267
546.539	3089.52634
546.744	3137.53524
546.95	3166.76738
547.155	3058.26678
547.361	3162.7735
547.566	3075.90254
547.772	3131.8086
547.977	3166.61328
548.182	3129.29588
548.388	3183.41517
548.593	3093.70395
548.799	3148.89975
549.004	3175.95733
549.209	3024.50012
549.415	3246.7798
549.62	3160.60544
549.825	3241.43376
550.031	3010.06606
550.236	3215.22283
550.441	3177.00897
550.646	3179.81065
550.852	3207.71052
551.057	3149.5928
551.262	3116.09917
551.467	3302.62072
551.672	3076.79007
551.878	3163.7327
552.083	3064.86397
552.288	3193.25374
552.493	3113.66634
552.698	3221.49812
552.903	3067.62236
553.108	3134.76314
553.313	3369.52047
553.518	3122.60932
553.723	3154.27508
553.928	3263.17411
554.133	3212.69592
554.338	3253.67032
554.543	3202.17659
554.748	3245.80157
554.953	3212.97849
555.158	3224.7706
555.363	3293.49631
555.568	3245.5999
555.773	3137.88253
555.978	3271.41935
556.182	3177.34798
556.387	3213.38396
556.592	3265.51405
556.797	3313.53562
557.002	3280.30079
557.206	3303.34059
557.411	3262.24852
557.616	3217.38306
557.821	3208.3618
558.025	3287.30304
558.23	3214.44037
558.435	3275.10615
558.64	3399.99491
558.844	3261.86572
559.049	3268.74903
559.253	3264.93095
559.458	3261.06197
559.663	3383.15227
559.867	3212.00847
560.072	3323.69494
560.276	3319.58425
560.481	3210.28128
560.685	3347.19403
560.89	3302.34153
561.094	3366.28264
561.299	3248.20809
561.503	3379.85793
561.708	3255.83709
561.912	3238.64174
562.117	3173.78187
562.321	3257.74411
562.525	3202.66666
562.73	3289.64999
562.934	3294.30384
563.139	3246.72142
563.343	3285.09947
563.547	3298.40968
563.752	3274.47927
563.956	3379.70811
564.16	3205.54161
564.364	3160.95978
564.569	3322.11291
564.773	3228.39779
564.977	3216.71736
565.181	3331.45601
565.385	3260.08173
565.59	3182.4523
565.794	3250.27259
565.998	3163.37889
566.202	3247.73013
566.406	3250.40292
566.61	3121.74281
566.814	3244.05297
567.018	3342.45967
567.222	3353.21652
567.426	3183.15227
567.63	3233.86153
567.834	3073.40846
568.038	3262.15949
568.242	3224.5934
568.446	3217.71782
568.65	3229.90676
568.854	3227.71252
569.058	3212.89018
569.262	3137.71155
569.466	3251.47262
569.67	3239.77033
569.874	3128.42852
570.078	3146.29656
570.281	3168.43181
570.485	3277.58294
570.689	3322.42743
570.893	3136.49592
571.097	3220.19184
571.3	3199.63436
571.504	3278.58199
571.708	3124.95417
571.912	3175.2788
572.115	3194.18603
572.319	3185.36928
572.523	3181.0836
572.726	3201.36224
572.93	3267.42085
573.133	3267.56468
573.337	3149.43764
573.541	3209.1719
573.744	3182.63789
