Data from Sun spf450_Subt2__1__09-55-44-440.txt Node

Date: Tue Sep 23 09:55:44 EDT 2025
User: brett
Spectrometer: USB4F03499
Trigger mode: 4
Integration Time (sec): 1.000000E-1
Scans to average: 1
Electric dark correction enabled: true
Nonlinearity correction enabled: true
Boxcar width: 0
XAxis mode: Wavelengths
Number of Pixels in Spectrum: 3648
>>>>>Begin Spectral Data<<<<<
0	37.09103
0.225	37.09103
0.449	37.09103
0.674	-75.90871
0.898	-9.02371
1.123	-70.84717
1.347	-52.53123
1.572	43.73729
1.796	142.31833
2.021	4.77763
2.245	27.61738
2.469	-34.22543
2.694	-109.80815
2.918	78.06399
3.143	-8.98905
3.367	0.19092
3.591	-20.46525
3.815	4.77537
4.04	264.73375
4.264	437.87358
4.488	441.26755
4.712	302.73751
4.936	377.79813
5.161	424.81023
5.385	369.84503
5.609	280.75195
5.833	359.38324
6.057	414.01207
6.281	314.81303
6.505	451.10838
6.729	384.17787
6.953	512.9765
7.177	364.39479
7.401	303.42446
7.625	368.89222
7.849	367.15696
8.073	466.99936
8.297	441.43271
8.521	383.21557
8.744	374.2661
8.968	528.47258
9.192	535.20419
9.416	499.45161
9.64	480.6279
9.863	467.03462
10.087	414.91726
10.311	403.53768
10.535	407.02283
10.758	393.00448
10.982	507.07997
11.205	339.11149
11.429	398.61763
11.653	402.98945
11.876	406.87125
12.1	423.90476
12.323	526.17522
12.547	489.25847
12.77	534.76164
12.994	371.01499
13.217	444.158
13.441	491.6258
13.664	534.76164
13.887	441.9977
14.111	540.75934
14.334	424.26395
14.557	402.98945
14.781	609.94745
15.004	413.70332
15.227	603.12342
15.451	593.43058
15.674	420.4421
15.897	410.7766
16.12	653.09952
16.343	704.81951
16.567	756.51968
16.79	610.93702
17.013	491.91065
17.236	549.96898
17.459	661.92781
17.682	624.0098
17.905	695.55071
18.128	802.13685
18.351	686.73841
18.574	728.40072
18.797	879.70802
19.02	735.85325
19.243	851.50215
19.466	815.55191
19.689	897.74063
19.911	933.93431
20.134	989.8867
20.357	938.6052
20.58	1003.46108
20.803	1168.55038
21.025	1076.43767
21.248	1130.3605
21.471	1234.16843
21.694	1290.44855
21.916	1289.39506
22.139	1418.20918
22.362	1360.04344
22.584	1546.90952
22.807	1595.33433
23.029	1573.68846
23.252	1677.94331
23.475	1691.32811
23.697	1959.66931
23.92	1922.05164
24.142	2051.6142
24.365	2165.19945
24.587	2099.66054
24.809	2183.51969
25.032	2264.01767
25.254	2361.59921
25.477	2619.62084
25.699	2724.42928
25.921	2819.59939
26.144	2816.50144
26.366	3035.33686
26.588	3252.12905
26.81	3403.86594
27.033	3394.7352
27.255	3425.02748
27.477	3653.99741
27.699	4010.3658
27.921	4084.59991
28.144	4231.56663
28.366	4408.47827
28.588	4680.42751
28.81	4792.16952
29.032	5252.40202
29.254	5338.78375
29.476	5629.01197
29.698	5845.0634
29.92	6140.80207
30.142	6614.82871
30.364	6615.05164
30.586	7086.1036
30.808	7301.93415
31.029	7705.1124
31.251	7994.27475
31.473	8224.25205
31.695	8403.24583
31.917	8941.0412
32.139	8922.44085
32.36	9266.6824
32.582	9665.41567
32.804	9881.92399
33.026	10375.94411
33.247	10598.84588
33.469	11089.20767
33.691	11197.35367
33.912	11845.11743
34.134	12067.89147
34.355	12048.67177
34.577	12713.04925
34.798	12897.29019
35.02	13346.88681
35.242	13075.00645
35.463	14165.55136
35.684	14377.52715
35.906	14455.06433
36.127	15308.16655
36.349	15147.82918
36.57	15991.39783
36.792	16468.47348
37.013	16812.78103
37.234	16814.59294
37.456	17243.04014
37.677	18021.12563
37.898	18326.62466
38.119	18245.87046
38.341	19055.9457
38.562	19045.71616
38.783	19899.34863
39.004	19547.95554
39.225	19976.52126
39.447	21023.31356
39.668	21857.17659
39.889	21612.0257
40.11	22671.72637
40.331	22909.0816
40.552	23686.25736
40.773	23978.72755
40.994	24469.45916
41.215	24985.68954
41.436	25844.81669
41.657	26445.33885
41.878	27117.11549
42.099	27963.63242
42.32	29342.45508
42.54	29917.88267
42.761	30261.6889
42.982	31687.25609
43.203	32652.1975
43.424	33533.15035
43.645	33992.766
43.865	35147.25833
44.086	35157.80928
44.307	36685.77173
44.527	37498.46882
44.748	38241.99088
44.969	39275.80342
45.189	38778.44162
45.41	38850.81245
45.631	41022.06749
45.851	40382.0222
46.072	40854.86936
46.292	40861.30282
46.513	41491.78948
46.733	43233.49301
46.954	43838.16447
47.174	45289.92902
47.395	44282.77238
47.615	45926.676
47.836	47227.58776
48.056	47557.3325
48.276	46867.17176
48.497	46210.26252
48.717	49159.31086
48.937	48476.46144
49.158	50046.83796
49.378	49198.92882
49.598	49914.80835
49.818	51656.0996
50.038	51094.4618
50.259	52243.35013
50.479	52902.66106
50.699	54483.55475
50.919	56619.37067
51.139	57525.47014
51.359	58817.81163
51.579	61311.85702
51.799	59869.96563
52.02	61953.15826
52.24	63556.62471
52.46	65107.64117
52.68	65765.25898
52.899	64653.80501
53.119	65735.43821
53.339	65776.73668
53.559	65726.26874
53.779	65646.15818
53.999	65666.73719
54.219	65602.76053
54.439	65788.21894
54.658	65822.69321
54.878	65723.97683
55.098	65762.96398
55.318	65701.06755
55.538	65673.60006
55.757	65723.97683
55.977	65735.43821
56.197	65664.44993
56.416	65737.73103
56.636	65735.43821
56.855	65758.37454
57.075	65673.60006
57.295	65769.84951
57.514	65811.19719
57.734	65707.93845
57.953	65723.97683
58.173	65714.81096
58.392	65751.49174
58.612	65760.66917
58.831	65765.25898
59.051	65703.35767
59.27	65637.01655
59.489	65719.39353
59.709	65733.14557
59.928	65753.78583
60.147	65737.73103
60.367	65762.96398
60.586	65685.04172
60.805	65744.61057
61.024	65726.26874
61.244	65806.60007
61.463	65740.02403
61.682	65717.10216
61.901	65705.64797
62.12	65762.96398
62.34	65726.26874
62.559	65730.85312
62.778	65607.32572
62.997	65751.49174
63.216	65795.11049
63.435	65788.21894
63.654	65637.01655
63.873	65749.19784
64.092	65735.43821
64.311	65675.88803
64.53	65714.81096
64.749	65733.14557
64.968	65721.68509
65.187	65818.09425
65.405	65735.43821
65.624	65730.85312
65.843	65710.22911
66.062	65719.39353
66.281	65682.75303
66.499	65806.60007
66.718	65788.21894
66.937	65705.64797
67.156	65721.68509
67.374	65760.66917
67.593	65623.3094
67.812	65730.85312
68.03	65742.31721
68.249	65790.51594
68.467	65760.66917
68.686	65694.19827
68.905	65682.75303
69.123	65852.60448
69.342	65726.26874
69.56	65756.08009
69.779	65829.59304
69.997	65703.35767
70.216	65744.61057
70.434	65719.39353
70.652	65689.61964
70.871	65735.43821
71.089	65762.96398
71.307	65804.30179
71.526	65712.51994
71.744	65769.84951
71.962	65762.96398
72.181	65767.55415
72.399	65760.66917
72.617	65717.10216
72.835	65701.06755
73.054	65769.84951
73.272	65746.90411
73.49	65758.37454
73.708	65811.19719
73.926	65802.00369
74.144	65797.40804
74.362	65712.51994
74.58	65746.90411
74.798	65744.61057
75.016	65728.56084
75.234	65760.66917
75.452	65735.43821
75.67	65698.77761
75.888	65772.14505
76.106	65673.60006
76.324	65806.60007
76.542	65811.19719
76.76	65730.85312
76.978	65742.31721
77.196	65774.44077
77.413	65701.06755
77.631	65678.17619
77.849	65785.92212
78.067	65696.48785
78.284	65694.19827
78.502	65751.49174
78.72	65751.49174
78.938	65806.60007
79.155	65788.21894
79.373	65742.31721
79.59	65788.21894
79.808	65751.49174
80.026	65776.73668
80.243	65760.66917
80.461	65650.73006
80.678	65634.73159
80.896	65694.19827
81.113	65723.97683
81.331	65756.08009
81.548	65550.31093
81.766	65689.61964
81.983	65712.51994
82.2	65762.96398
82.418	65818.09425
82.635	65682.75303
82.852	65586.78787
83.07	65733.14557
83.287	65744.61057
83.504	65710.22911
83.722	65637.01655
83.939	65726.26874
84.156	65630.16219
84.373	65783.62549
84.591	65742.31721
84.808	65728.56084
85.025	65689.61964
85.242	65762.96398
85.459	65721.68509
85.676	65733.14557
85.893	65799.70577
86.11	65714.81096
86.327	65717.10216
86.544	65728.56084
86.761	65758.37454
86.978	65689.61964
87.195	65723.97683
87.412	65834.19384
87.629	65779.03276
87.846	65740.02403
88.063	65655.30264
88.28	65733.14557
88.497	65742.31721
88.713	65772.14505
88.93	65797.40804
89.147	65758.37454
89.364	65698.77761
89.58	65726.26874
89.797	65698.77761
90.014	65728.56084
90.231	65675.88803
90.447	65753.78583
90.664	65698.77761
90.881	65707.93845
91.097	65662.16284
91.314	65669.02464
91.53	65746.90411
91.747	65717.10216
91.963	65781.32903
92.18	65733.14557
92.396	65733.14557
92.613	65719.39353
92.829	65818.09425
93.046	65802.00369
93.262	65792.81312
93.479	65701.06755
93.695	65707.93845
93.911	65742.31721
94.128	65792.81312
94.344	65655.30264
94.56	65694.19827
94.777	65841.09644
94.993	65772.14505
95.209	65666.73719
95.426	65513.87819
95.642	65795.11049
95.858	65756.08009
96.074	65740.02403
96.29	65806.60007
96.506	65735.43821
96.723	65717.10216
96.939	65788.21894
97.155	65776.73668
97.371	65726.26874
97.587	65758.37454
97.803	65760.66917
98.019	65751.49174
98.235	65694.19827
98.451	65783.62549
98.667	65637.01655
98.883	65774.44077
99.099	65806.60007
99.315	65779.03276
99.53	65719.39353
99.746	65751.49174
99.962	65785.92212
100.178	65742.31721
100.394	65744.61057
100.61	65811.19719
100.825	65696.48785
101.041	65774.44077
101.257	65721.68509
101.473	65726.26874
101.688	65707.93845
101.904	65765.25898
102.12	65733.14557
102.335	65719.39353
102.551	65765.25898
102.766	65673.60006
102.982	65751.49174
103.198	65772.14505
103.413	65730.85312
103.629	65762.96398
103.844	65756.08009
104.06	65744.61057
104.275	65691.90886
104.49	65710.22911
104.706	65783.62549
104.921	65147.39836
105.137	65730.85312
105.352	65664.44993
105.567	65744.61057
105.783	65721.68509
105.998	65714.81096
106.213	65696.48785
106.429	65781.32903
106.644	65765.25898
106.859	65723.97683
107.074	65598.19604
107.29	65783.62549
107.505	65749.19784
107.72	65678.17619
107.935	65682.75303
108.15	65714.81096
108.365	65795.11049
108.58	65691.90886
108.795	65685.04172
109.01	65691.90886
109.226	65815.79505
109.441	65577.66447
109.656	65795.11049
109.871	65627.87775
110.085	65696.48785
110.3	65726.26874
110.515	65804.30179
110.73	65641.58701
110.945	65753.78583
111.16	65696.48785
111.375	65701.06755
111.59	65749.19784
111.804	65719.39353
112.019	65721.68509
112.234	65758.37454
112.449	65696.48785
112.663	65735.43821
112.878	65758.37454
113.093	65737.73103
113.308	65650.73006
113.522	65735.43821
113.737	65857.20899
113.951	65705.64797
114.166	65737.73103
114.381	65726.26874
114.595	65749.19784
114.81	65719.39353
115.024	65733.14557
115.239	65705.64797
115.453	65767.55415
115.668	65751.49174
115.882	65698.77761
116.097	65751.49174
116.311	65834.19384
116.525	65726.26874
116.74	65841.09644
116.954	65689.61964
117.169	65737.73103
117.383	65719.39353
117.597	65675.88803
117.811	65735.43821
118.026	65650.73006
118.24	65687.33059
118.454	65740.02403
118.668	65742.31721
118.883	65742.31721
119.097	65723.97683
119.311	65723.97683
119.525	65726.26874
119.739	65730.85312
119.953	65751.49174
120.167	65609.60857
120.381	65760.66917
120.595	65726.26874
120.809	65767.55415
121.023	65712.51994
121.237	65751.49174
121.451	65760.66917
121.665	65756.08009
121.879	65723.97683
122.093	65659.87593
122.307	65831.89335
122.521	65772.14505
122.735	65659.87593
122.949	65756.08009
123.163	65811.19719
123.376	65694.19827
123.59	65673.60006
123.804	65730.85312
124.018	65767.55415
124.231	65779.03276
124.445	65802.00369
124.659	65657.58919
124.872	65639.3017
125.086	65735.43821
125.3	65730.85312
125.513	65712.51994
125.727	65767.55415
125.94	65714.81096
126.154	65735.43821
126.368	65783.62549
126.581	65758.37454
126.795	65767.55415
127.008	65762.96398
127.222	65795.11049
127.435	65783.62549
127.648	65781.32903
127.862	65710.22911
128.075	65774.44077
128.289	65691.90886
128.502	65785.92212
128.715	65721.68509
128.929	65836.49452
129.142	65762.96398
129.355	65733.14557
129.568	65671.31226
129.782	65710.22911
129.995	65655.30264
130.208	65756.08009
130.421	65776.73668
130.634	65769.84951
130.848	65691.90886
131.061	65655.30264
131.274	65696.48785
131.487	65795.11049
131.7	65767.55415
131.913	65694.19827
132.126	65740.02403
132.339	65643.87251
132.552	65554.86812
132.765	65662.16284
132.978	65740.02403
133.191	65762.96398
133.404	65698.77761
133.617	65758.37454
133.83	65710.22911
134.043	65788.21894
134.255	65813.49603
134.468	65712.51994
134.681	65808.89854
134.894	65850.3025
135.107	65779.03276
135.319	65701.06755
135.532	65728.56084
135.745	65694.19827
135.958	65746.90411
136.17	65820.39364
136.383	65723.97683
136.596	65772.14505
136.808	65744.61057
137.021	65682.75303
137.233	65774.44077
137.446	65717.10216
137.659	65756.08009
137.871	65607.32572
138.084	65746.90411
138.296	65707.93845
138.509	65742.31721
138.721	65776.73668
138.934	65723.97683
139.146	65710.22911
139.358	65769.84951
139.571	65648.44403
139.783	65653.01626
139.996	65728.56084
140.208	65673.60006
140.42	65680.46452
140.632	65707.93845
140.845	65760.66917
141.057	65820.39364
141.269	65767.55415
141.481	65742.31721
141.694	65788.21894
141.906	65721.68509
142.118	65838.79539
142.33	65714.81096
142.542	65795.11049
142.754	65703.35767
142.967	65827.29291
143.179	65781.32903
143.391	65669.02464
143.603	65760.66917
143.815	65657.58919
144.027	65737.73103
144.239	65630.16219
144.451	65728.56084
144.663	65740.02403
144.875	65664.44993
145.086	65632.4468
145.298	65685.04172
145.51	65762.96398
145.722	65666.73719
145.934	65756.08009
146.146	65760.66917
146.358	65744.61057
146.569	65795.11049
146.781	65710.22911
146.993	65792.81312
147.205	65646.15818
147.416	65746.90411
147.628	65737.73103
147.84	65696.48785
148.051	65744.61057
148.263	65710.22911
148.475	65783.62549
148.686	65749.19784
148.898	65673.60006
149.109	65657.58919
149.321	65785.92212
149.532	65664.44993
149.744	65721.68509
149.955	65698.77761
150.167	65753.78583
150.378	65740.02403
150.59	65769.84951
150.801	65808.89854
151.013	65795.11049
151.224	65657.58919
151.435	65744.61057
151.647	65657.58919
151.858	65712.51994
152.069	65744.61057
152.281	65746.90411
152.492	65717.10216
152.703	65751.49174
152.914	65616.4582
153.126	65712.51994
153.337	65717.10216
153.548	65813.49603
153.759	65707.93845
153.97	65792.81312
154.181	65776.73668
154.392	65687.33059
154.604	65804.30179
154.815	65767.55415
155.026	65701.06755
155.237	65744.61057
155.448	65637.01655
155.659	65719.39353
155.87	65726.26874
156.081	65705.64797
156.292	65774.44077
156.502	65806.60007
156.713	65703.35767
156.924	65680.46452
157.135	65723.97683
157.346	65740.02403
157.557	65703.35767
157.768	65769.84951
157.978	65811.19719
158.189	65714.81096
158.4	65776.73668
158.611	65714.81096
158.821	65664.44993
159.032	65753.78583
159.243	65685.04172
159.453	65733.14557
159.664	65733.14557
159.875	65694.19827
160.085	65769.84951
160.296	65694.19827
160.507	65753.78583
160.717	65779.03276
160.928	65691.90886
161.138	65896.37749
161.349	65751.49174
161.559	65818.09425
161.77	65749.19784
161.98	65772.14505
162.19	65698.77761
162.401	65753.78583
162.611	65687.33059
162.822	65760.66917
163.032	65753.78583
163.242	65767.55415
163.453	65687.33059
163.663	65790.51594
163.873	65714.81096
164.084	65776.73668
164.294	65788.21894
164.504	65737.73103
164.714	65719.39353
164.924	65721.68509
165.135	65772.14505
165.345	65691.90886
165.555	65730.85312
165.765	65678.17619
165.975	65687.33059
166.185	65735.43821
166.395	65762.96398
166.605	65804.30179
166.815	65792.81312
167.025	65751.49174
167.235	65653.01626
167.445	65850.3025
167.655	65714.81096
167.865	65744.61057
168.075	65728.56084
168.285	65744.61057
168.495	65726.26874
168.705	65662.16284
168.915	65637.01655
169.124	65701.06755
169.334	65703.35767
169.544	65707.93845
169.754	65744.61057
169.964	65698.77761
170.173	65673.60006
170.383	65719.39353
170.593	65726.26874
170.802	65682.75303
171.012	65785.92212
171.222	65749.19784
171.431	65790.51594
171.641	65756.08009
171.851	65811.19719
172.06	65769.84951
172.27	65772.14505
172.479	65705.64797
172.689	65767.55415
172.898	65714.81096
173.108	65758.37454
173.317	65691.90886
173.527	65797.40804
173.736	65802.00369
173.945	65728.56084
174.155	65689.61964
174.364	65691.90886
174.574	65728.56084
174.783	65740.02403
174.992	65678.17619
175.202	65737.73103
175.411	65680.46452
175.62	65767.55415
175.829	65781.32903
176.039	65717.10216
176.248	65687.33059
176.457	65740.02403
176.666	65655.30264
176.875	65772.14505
177.084	65701.06755
177.294	65779.03276
177.503	65792.81312
177.712	65650.73006
177.921	65774.44077
178.13	65742.31721
178.339	65829.59304
178.548	65762.96398
178.757	65730.85312
178.966	65691.90886
179.175	65705.64797
179.384	65749.19784
179.593	65726.26874
179.802	65804.30179
180.011	65730.85312
180.219	65751.49174
180.428	65721.68509
180.637	65721.68509
180.846	65691.90886
181.055	65723.97683
181.263	65749.19784
181.472	65646.15818
181.681	65779.03276
181.89	65714.81096
182.098	65648.44403
182.307	65756.08009
182.516	65717.10216
182.724	65733.14557
182.933	65696.48785
183.142	65820.39364
183.35	65717.10216
183.559	65723.97683
183.767	65740.02403
183.976	65769.84951
184.184	65783.62549
184.393	65710.22911
184.601	65769.84951
184.81	65650.73006
185.018	65774.44077
185.227	65712.51994
185.435	65792.81312
185.644	65696.48785
185.852	65838.79539
186.06	65694.19827
186.269	65694.19827
186.477	65689.61964
186.685	65737.73103
186.894	65648.44403
187.102	65733.14557
187.31	65664.44993
187.518	65737.73103
187.727	65822.69321
187.935	65799.70577
188.143	65740.02403
188.351	65707.93845
188.559	65799.70577
188.768	65662.16284
188.976	65682.75303
189.184	65698.77761
189.392	65696.48785
189.6	65705.64797
189.808	65625.59349
190.016	65767.55415
190.224	65756.08009
190.432	57486.03791
190.64	55651.94225
190.848	13455.46411
191.056	13272.19787
191.264	13424.10368
191.472	13336.32884
191.679	13649.00133
191.887	13595.70368
192.095	13702.60932
192.303	13544.90256
192.511	13762.8523
192.719	13671.16798
192.926	13714.94229
193.134	13418.95261
193.342	13710.92931
193.55	13561.1222
193.757	13727.80397
193.965	13402.18227
194.173	13517.3072
194.38	13636.95724
194.588	13470.43944
194.796	13467.94055
195.003	13515.40849
195.211	13553.16822
195.418	13399.61753
195.626	13619.58934
195.833	13699.64801
196.041	13397.83088
196.248	13554.24266
196.456	13515.13797
196.663	13405.09843
196.871	13509.40432
197.078	13475.36837
197.285	13522.78177
197.493	13667.08211
197.7	13598.62457
197.908	13480.60182
198.115	13497.65379
198.322	13496.09442
198.529	13601.53238
198.737	13458.49712
198.944	13533.88721
199.151	13886.04494
199.358	13536.74718
199.566	13471.66199
199.773	13377.91943
199.98	13663.76887
200.187	13701.66952
200.394	13515.62729
200.601	13458.93833
200.809	13918.00781
201.016	13738.92394
201.223	13746.18112
201.43	13594.5291
201.637	13805.5156
201.844	13802.03193
202.051	13736.31194
202.258	13394.38515
202.465	13538.56362
202.672	13654.17654
202.878	13810.28596
203.085	13801.47867
203.292	13565.90173
203.499	13574.47358
203.706	13699.27298
203.913	13487.10259
204.12	13914.36735
204.326	14013.08298
204.533	13854.99254
204.74	13746.96832
204.947	13869.74971
205.153	13804.50463
205.36	14155.90838
205.567	14283.72975
205.773	14036.55098
205.98	13860.4271
206.187	14037.21418
206.393	13965.45404
206.6	13899.56106
206.806	14098.3622
207.013	14121.6908
207.22	14112.39948
207.426	14089.1731
207.633	13977.02074
207.839	13878.32017
208.046	14081.97692
208.252	14045.9011
208.458	13889.89654
208.665	13947.66419
208.871	14039.13823
209.078	14145.53713
209.284	14265.3982
209.49	14315.24009
209.697	14040.88183
209.903	14326.26992
210.109	13908.18756
210.316	14124.38279
210.522	14309.63945
210.728	14209.34655
210.934	14433.14962
211.14	14174.14844
211.347	14316.66074
211.553	14468.55571
211.759	14230.90118
211.965	14346.68094
212.171	13985.86929
212.377	14341.30181
212.583	14360.70729
212.789	14227.75416
212.996	14147.01486
213.202	14175.2716
213.408	14525.53746
213.614	14368.78677
213.82	14194.80502
214.025	14215.08657
214.231	14103.5161
214.437	14464.06352
214.643	14136.77483
214.849	14340.23663
215.055	14141.11723
215.261	14121.75671
215.467	14509.64689
215.672	14389.9927
215.878	14213.78612
216.084	14385.47455
216.29	14374.30223
216.496	14219.99681
216.701	14051.41811
216.907	14323.14043
217.113	14485.67619
217.318	14400.83543
217.524	14331.30377
217.73	14346.82269
217.935	14080.43861
218.141	14227.64728
218.346	14110.66676
218.552	14381.07042
218.758	14431.79591
218.963	14177.96967
219.169	14132.60764
219.374	14309.66774
219.58	14055.2176
219.785	14469.67583
219.991	14250.94394
220.196	14210.75235
220.401	14368.3028
