Data from Sun spf500_Subt2__1__09-57-14-333.txt Node

Date: Tue Sep 23 09:57:14 EDT 2025
User: brett
Spectrometer: USB4F03499
Trigger mode: 4
Integration Time (sec): 1.000000E-1
Scans to average: 1
Electric dark correction enabled: true
Nonlinearity correction enabled: true
Boxcar width: 0
XAxis mode: Wavelengths
Number of Pixels in Spectrum: 3648
>>>>>Begin Spectral Data<<<<<
0	-2.11546
0.225	-2.11546
0.449	-2.11546
0.674	-82.83714
0.898	34.72421
1.123	-73.14161
1.347	-27.30442
1.572	-20.45877
1.796	43.82036
2.021	20.82473
2.245	7.04965
2.469	23.11281
2.694	-70.80276
2.918	-2.10241
3.143	-50.33646
3.367	105.39263
3.591	43.75106
3.815	-57.17441
4.04	849.65986
4.264	1213.94886
4.488	1197.8402
4.712	1151.83108
4.936	1128.78786
5.161	1108.90204
5.385	1169.52747
5.609	1098.97069
5.833	1172.01267
6.057	1226.10819
6.281	1189.74921
6.505	1283.75664
6.729	1134.32405
6.953	1431.31523
7.177	1093.85238
7.401	1152.00846
7.625	1213.12398
7.849	1245.63266
8.073	1328.03093
8.297	1297.49805
8.521	1319.03384
8.744	1277.49261
8.968	1340.25014
9.192	1324.72304
9.416	1376.36342
9.64	1308.37489
9.863	1438.14302
10.087	1235.1953
10.311	1283.57905
10.535	1168.16062
10.758	1347.31495
10.982	1300.23503
11.205	1242.81253
11.429	1390.26542
11.653	1334.83038
11.876	1295.55616
12.1	1296.81036
12.323	1401.8302
12.547	1336.01721
12.77	1457.91273
12.994	1322.83761
13.217	1417.58943
13.441	1384.70971
13.664	1479.86707
13.887	1354.09162
14.111	1467.00474
14.334	1309.10033
14.557	1339.23041
14.781	1498.68303
15.004	1429.6885
15.227	1287.71889
15.451	1449.32496
15.674	1387.92141
15.897	1353.08658
16.12	1534.82731
16.343	1407.93751
16.567	1585.77704
16.79	1463.60639
17.013	1569.96642
17.236	1539.82304
17.459	1573.89746
17.682	1541.60001
17.905	1707.05457
18.128	1760.02983
18.351	1740.07192
18.574	1631.38719
18.797	1745.79981
19.02	1787.60936
19.243	1784.35008
19.466	1681.6437
19.689	1785.355
19.911	1890.71695
20.134	1919.45188
20.357	2027.83523
20.58	1809.5885
20.803	2079.42687
21.025	1948.12854
21.248	2077.08195
21.471	2080.03675
21.694	2038.64545
21.916	2167.76565
22.139	2366.59872
22.362	2316.63631
22.584	2342.86341
22.807	2443.24233
23.029	2477.81323
23.252	2320.52042
23.475	2773.17235
23.697	2849.49541
23.92	2860.53434
24.142	2757.23001
24.365	2926.29624
24.587	3000.10264
24.809	3109.88392
25.032	3086.51168
25.254	3246.12064
25.477	3467.63138
25.699	3660.67768
25.921	3785.57927
26.144	3854.99204
26.366	3898.73669
26.588	4098.78443
26.81	4405.47736
27.033	4485.19081
27.255	4465.95262
27.477	4895.22187
27.699	5026.04879
27.921	5101.60664
28.144	5324.56061
28.366	5661.058
28.588	5867.84089
28.81	6033.24971
29.032	6587.29366
29.254	6683.17919
29.476	6917.5805
29.698	7308.51295
29.92	7583.51702
30.142	8005.86261
30.364	8202.04995
30.586	8646.16855
30.808	9012.39825
31.029	9298.59598
31.251	9711.58818
31.473	10035.36994
31.695	10632.93562
31.917	10819.14701
32.139	11034.19513
32.36	11613.72858
32.582	12187.67463
32.804	12462.67103
33.026	12894.72005
33.247	13450.71681
33.469	13851.11352
33.691	14508.96049
33.912	15200.94992
34.134	15279.57574
34.355	15492.23874
34.577	16193.66554
34.798	16832.65994
35.02	17377.41971
35.242	17025.134
35.463	18647.89453
35.684	18599.52361
35.906	19105.13117
36.127	19928.40812
36.349	20072.5167
36.57	21285.67883
36.792	22694.65546
37.013	22771.98291
37.234	22393.4563
37.456	23570.80603
37.677	24693.78566
37.898	24935.53845
38.119	25310.41276
38.341	26445.86167
38.562	27270.98541
38.783	27871.13741
39.004	27575.49262
39.225	28902.76859
39.447	29856.02877
39.668	31189.44829
39.889	31318.84998
40.11	32339.12864
40.331	33241.34707
40.552	33987.63506
40.773	35004.81363
40.994	36132.22584
41.215	36847.38509
41.436	37812.64154
41.657	38679.7938
41.878	39966.01237
42.099	41286.87822
42.32	43137.82119
42.54	44541.08749
42.761	45507.95704
42.982	47114.29999
43.203	48826.89947
43.424	50375.65738
43.645	50410.09823
43.865	52976.06265
44.086	53045.18726
44.307	55119.9002
44.527	56631.04357
44.748	58055.20198
44.969	59242.7501
45.189	58354.85357
45.41	58560.78504
45.631	61515.24287
45.851	60928.5981
46.072	61943.98037
46.292	62632.5223
46.513	62742.34645
46.733	65586.97241
46.954	65712.87067
47.174	65774.87496
47.395	65793.27228
47.615	65644.13196
47.836	65637.26696
48.056	65745.00441
48.276	65701.40296
48.497	65634.97898
48.717	65639.55512
48.937	65598.39548
49.158	65719.75347
49.378	65717.45902
49.598	65692.23204
49.818	65621.25485
50.038	65625.82885
50.259	65733.52398
50.479	65770.27747
50.699	65699.10996
50.919	65694.5245
51.139	65676.18989
51.359	65703.69614
51.579	65722.0481
51.799	65719.75347
52.02	65705.9895
52.24	65669.31738
52.46	65710.57676
52.68	65726.6379
52.899	65671.60803
53.119	65696.81714
53.339	65738.1156
53.559	65687.64767
53.779	65607.53711
53.999	65628.11612
54.219	65564.13946
54.439	65749.59787
54.658	65784.07214
54.878	65685.35575
55.098	65724.34291
55.318	65662.44648
55.538	65634.97898
55.757	65685.35575
55.977	65696.81714
56.197	65625.82885
56.416	65699.10996
56.636	65696.81714
56.855	65719.75347
57.075	65634.97898
57.295	65731.22844
57.514	65772.57612
57.734	65669.31738
57.953	65685.35575
58.173	65676.18989
58.392	65712.87067
58.612	65722.0481
58.831	65726.6379
59.051	65664.7366
59.27	65598.39548
59.489	65680.77246
59.709	65694.5245
59.928	65715.16475
60.147	65699.10996
60.367	65724.34291
60.586	65646.42065
60.805	65705.9895
61.024	65687.64767
61.244	65767.979
61.463	65701.40296
61.682	65678.48108
61.901	65667.0269
62.12	65724.34291
62.34	65687.64767
62.559	65692.23204
62.778	65568.70464
62.997	65712.87067
63.216	65756.48942
63.435	65749.59787
63.654	65598.39548
63.873	65710.57676
64.092	65696.81714
64.311	65637.26696
64.53	65676.18989
64.749	65694.5245
64.968	65683.06402
65.187	65779.47318
65.405	65696.81714
65.624	65692.23204
65.843	65671.60803
66.062	65680.77246
66.281	65644.13196
66.499	65767.979
66.718	65749.59787
66.937	65667.0269
67.156	65683.06402
67.374	65722.0481
67.593	65584.68833
67.812	65692.23204
68.03	65703.69614
68.249	65751.89487
68.467	65722.0481
68.686	65655.57719
68.905	65644.13196
69.123	65813.98341
69.342	65687.64767
69.56	65717.45902
69.779	65790.97196
69.997	65664.7366
70.216	65705.9895
70.434	65680.77246
70.652	65650.99856
70.871	65696.81714
71.089	65724.34291
71.307	65765.68072
71.526	65673.89887
71.744	65731.22844
71.962	65724.34291
72.181	65728.93308
72.399	65722.0481
72.617	65678.48108
72.835	65662.44648
73.054	65731.22844
73.272	65708.28304
73.49	65719.75347
73.708	65772.57612
73.926	65763.38262
74.144	65758.78697
74.362	65673.89887
74.58	65708.28304
74.798	65705.9895
75.016	65689.93977
75.234	65722.0481
75.452	65696.81714
75.67	65660.15654
75.888	65733.52398
76.106	65634.97898
76.324	65767.979
76.542	65772.57612
76.76	65692.23204
76.978	65703.69614
77.196	65735.8197
77.413	65662.44648
77.631	65639.55512
77.849	65747.30105
78.067	65657.86678
78.284	65655.57719
78.502	65712.87067
78.72	65712.87067
78.938	65767.979
79.155	65749.59787
79.373	65703.69614
79.59	65749.59787
79.808	65712.87067
80.026	65738.1156
80.243	65722.0481
80.461	65612.10898
80.678	65596.11051
80.896	65655.57719
81.113	65685.35575
81.331	65717.45902
81.548	65511.68986
81.766	65650.99856
81.983	65673.89887
82.2	65724.34291
82.418	65779.47318
82.635	65644.13196
82.852	65548.1668
83.07	65694.5245
83.287	65705.9895
83.504	65671.60803
83.722	65598.39548
83.939	65687.64767
84.156	65591.54111
84.373	65745.00441
84.591	65703.69614
84.808	65689.93977
85.025	65650.99856
85.242	65724.34291
85.459	65683.06402
85.676	65694.5245
85.893	65761.0847
86.11	65676.18989
86.327	65678.48108
86.544	65689.93977
86.761	65719.75347
86.978	65650.99856
87.195	65685.35575
87.412	65795.57277
87.629	65740.41169
87.846	65701.40296
88.063	65616.68156
88.28	65694.5245
88.497	65703.69614
88.713	65733.52398
88.93	65758.78697
89.147	65719.75347
89.364	65660.15654
89.58	65687.64767
89.797	65660.15654
90.014	65689.93977
90.231	65637.26696
90.447	65715.16475
90.664	65660.15654
90.881	65669.31738
91.097	65623.54176
91.314	65630.40356
91.53	65708.28304
91.747	65678.48108
91.963	65742.70796
92.18	65694.5245
92.396	65694.5245
92.613	65680.77246
92.829	65779.47318
93.046	65763.38262
93.262	65754.19205
93.479	65662.44648
93.695	65669.31738
93.911	65703.69614
94.128	65754.19205
94.344	65616.68156
94.56	65655.57719
94.777	65802.47537
94.993	65733.52398
95.209	65628.11612
95.426	65475.25712
95.642	65756.48942
95.858	65717.45902
96.074	65701.40296
96.29	65767.979
96.506	65696.81714
96.723	65678.48108
96.939	65749.59787
97.155	65738.1156
97.371	65687.64767
97.587	65719.75347
97.803	65722.0481
98.019	65712.87067
98.235	65655.57719
98.451	65745.00441
98.667	65598.39548
98.883	65735.8197
99.099	65767.979
99.315	65740.41169
99.53	65680.77246
99.746	65712.87067
99.962	65747.30105
100.178	65703.69614
100.394	65705.9895
100.61	65772.57612
100.825	65657.86678
101.041	65735.8197
101.257	65683.06402
101.473	65687.64767
101.688	65669.31738
101.904	65726.6379
102.12	65694.5245
102.335	65680.77246
102.551	65726.6379
102.766	65634.97898
102.982	65712.87067
103.198	65733.52398
103.413	65692.23204
103.629	65724.34291
103.844	65717.45902
104.06	65705.9895
104.275	65653.28779
104.49	65671.60803
104.706	65745.00441
104.921	65108.77728
105.137	65692.23204
105.352	65625.82885
105.567	65705.9895
105.783	65683.06402
105.998	65676.18989
106.213	65657.86678
106.429	65742.70796
106.644	65726.6379
106.859	65685.35575
107.074	65559.57497
107.29	65745.00441
107.505	65710.57676
107.72	65639.55512
107.935	65644.13196
108.15	65676.18989
108.365	65756.48942
108.58	65653.28779
108.795	65646.42065
109.01	65653.28779
109.226	65777.17398
109.441	65539.0434
109.656	65756.48942
109.871	65589.25667
110.085	65657.86678
110.3	65687.64767
110.515	65765.68072
110.73	65602.96594
110.945	65715.16475
111.16	65657.86678
111.375	65662.44648
111.59	65710.57676
111.804	65680.77246
112.019	65683.06402
112.234	65719.75347
112.449	65657.86678
112.663	65696.81714
112.878	65719.75347
113.093	65699.10996
113.308	65612.10898
113.522	65696.81714
113.737	65818.58792
113.951	65667.0269
114.166	65699.10996
114.381	65687.64767
114.595	65710.57676
114.81	65680.77246
115.024	65694.5245
115.239	65667.0269
115.453	65728.93308
115.668	65712.87067
115.882	65660.15654
116.097	65712.87067
116.311	65795.57277
116.525	65687.64767
116.74	65802.47537
116.954	65650.99856
117.169	65699.10996
117.383	65680.77246
117.597	65637.26696
117.811	65696.81714
118.026	65612.10898
118.24	65648.70952
118.454	65701.40296
118.668	65703.69614
118.883	65703.69614
119.097	65685.35575
119.311	65685.35575
119.525	65687.64767
119.739	65692.23204
119.953	65712.87067
120.167	65570.9875
120.381	65722.0481
120.595	65687.64767
120.809	65728.93308
121.023	65673.89887
121.237	65712.87067
121.451	65722.0481
121.665	65717.45902
121.879	65685.35575
122.093	65621.25485
122.307	65793.27228
122.521	65733.52398
122.735	65621.25485
122.949	65717.45902
123.163	65772.57612
123.376	65655.57719
123.59	65634.97898
123.804	65692.23204
124.018	65728.93308
124.231	65740.41169
124.445	65763.38262
124.659	65618.96812
124.872	65600.68062
125.086	65696.81714
125.3	65692.23204
125.513	65673.89887
125.727	65728.93308
125.94	65676.18989
126.154	65696.81714
126.368	65745.00441
126.581	65719.75347
126.795	65728.93308
127.008	65724.34291
127.222	65756.48942
127.435	65745.00441
127.648	65742.70796
127.862	65671.60803
128.075	65735.8197
128.289	65653.28779
128.502	65747.30105
128.715	65683.06402
128.929	65797.87345
129.142	65724.34291
129.355	65694.5245
129.568	65632.69118
129.782	65671.60803
129.995	65616.68156
130.208	65717.45902
130.421	65738.1156
130.634	65731.22844
130.848	65653.28779
131.061	65616.68156
131.274	65657.86678
131.487	65756.48942
131.7	65728.93308
131.913	65655.57719
132.126	65701.40296
132.339	65605.25144
132.552	65516.24705
132.765	65623.54176
132.978	65701.40296
133.191	65724.34291
133.404	65660.15654
133.617	65719.75347
133.83	65671.60803
134.043	65749.59787
134.255	65774.87496
134.468	65673.89887
134.681	65770.27747
134.894	65811.68143
135.107	65740.41169
135.319	65662.44648
135.532	65689.93977
135.745	65655.57719
135.958	65708.28304
136.17	65781.77257
136.383	65685.35575
136.596	65733.52398
136.808	65705.9895
137.021	65644.13196
137.233	65735.8197
137.446	65678.48108
137.659	65717.45902
137.871	65568.70464
138.084	65708.28304
138.296	65669.31738
138.509	65703.69614
138.721	65738.1156
138.934	65685.35575
139.146	65671.60803
139.358	65731.22844
139.571	65609.82296
139.783	65614.39518
139.996	65689.93977
140.208	65634.97898
140.42	65641.84345
140.632	65669.31738
140.845	65722.0481
141.057	65781.77257
141.269	65728.93308
141.481	65703.69614
141.694	65749.59787
141.906	65683.06402
142.118	65800.17432
142.33	65676.18989
142.542	65756.48942
142.754	65664.7366
142.967	65788.67184
143.179	65742.70796
143.391	65630.40356
143.603	65722.0481
143.815	65618.96812
144.027	65699.10996
144.239	65591.54111
144.451	65689.93977
144.663	65701.40296
144.875	65625.82885
145.086	65593.82573
145.298	65646.42065
145.51	65724.34291
145.722	65628.11612
145.934	65717.45902
146.146	65722.0481
146.358	65705.9895
146.569	65756.48942
146.781	65671.60803
146.993	65754.19205
147.205	65607.53711
147.416	65708.28304
147.628	65699.10996
147.84	65657.86678
148.051	65705.9895
148.263	65671.60803
148.475	65745.00441
148.686	65710.57676
148.898	65634.97898
149.109	65618.96812
149.321	65747.30105
149.532	65625.82885
149.744	65683.06402
149.955	65660.15654
150.167	65715.16475
150.378	65701.40296
150.59	65731.22844
150.801	65770.27747
151.013	65756.48942
151.224	65618.96812
151.435	65705.9895
151.647	65618.96812
151.858	65673.89887
152.069	65705.9895
152.281	65708.28304
152.492	65678.48108
152.703	65712.87067
152.914	65577.83713
153.126	65673.89887
153.337	65678.48108
153.548	65774.87496
153.759	65669.31738
153.97	65754.19205
154.181	65738.1156
154.392	65648.70952
154.604	65765.68072
154.815	65728.93308
155.026	65662.44648
155.237	65705.9895
155.448	65598.39548
155.659	65680.77246
155.87	65687.64767
156.081	65667.0269
156.292	65735.8197
156.502	65767.979
156.713	65664.7366
156.924	65641.84345
157.135	65685.35575
157.346	65701.40296
157.557	65664.7366
157.768	65731.22844
157.978	65772.57612
158.189	65676.18989
158.4	65738.1156
158.611	65676.18989
158.821	65625.82885
159.032	65715.16475
159.243	65646.42065
159.453	65694.5245
159.664	65694.5245
159.875	65655.57719
160.085	65731.22844
160.296	65655.57719
160.507	65715.16475
160.717	65740.41169
160.928	65653.28779
161.138	65857.75642
161.349	65712.87067
161.559	65779.47318
161.77	65710.57676
161.98	65733.52398
162.19	65660.15654
162.401	65715.16475
162.611	65648.70952
162.822	65722.0481
163.032	65715.16475
163.242	65728.93308
163.453	65648.70952
163.663	65751.89487
163.873	65676.18989
164.084	65738.1156
164.294	65749.59787
164.504	65699.10996
164.714	65680.77246
164.924	65683.06402
165.135	65733.52398
165.345	65653.28779
165.555	65692.23204
165.765	65639.55512
165.975	65648.70952
166.185	65696.81714
166.395	65724.34291
166.605	65765.68072
166.815	65754.19205
167.025	65712.87067
167.235	65614.39518
167.445	65811.68143
167.655	65676.18989
167.865	65705.9895
168.075	65689.93977
168.285	65705.9895
168.495	65687.64767
168.705	65623.54176
168.915	65598.39548
169.124	65662.44648
169.334	65664.7366
169.544	65669.31738
169.754	65705.9895
169.964	65660.15654
170.173	65634.97898
170.383	65680.77246
170.593	65687.64767
170.802	65644.13196
171.012	65747.30105
171.222	65710.57676
171.431	65751.89487
171.641	65717.45902
171.851	65772.57612
172.06	65731.22844
172.27	65733.52398
172.479	65667.0269
172.689	65728.93308
172.898	65676.18989
173.108	65719.75347
173.317	65653.28779
173.527	65758.78697
173.736	65763.38262
173.945	65689.93977
174.155	65650.99856
174.364	65653.28779
174.574	65689.93977
174.783	65701.40296
174.992	65639.55512
175.202	65699.10996
175.411	65641.84345
175.62	65728.93308
175.829	65742.70796
176.039	65678.48108
176.248	65648.70952
176.457	65701.40296
176.666	65616.68156
176.875	65733.52398
177.084	65662.44648
177.294	65740.41169
177.503	65754.19205
177.712	65612.10898
177.921	65735.8197
178.13	65703.69614
178.339	65790.97196
178.548	65724.34291
178.757	65692.23204
178.966	65653.28779
179.175	65667.0269
179.384	65710.57676
179.593	65687.64767
179.802	65765.68072
180.011	65692.23204
180.219	65712.87067
180.428	65683.06402
180.637	65683.06402
180.846	65653.28779
181.055	65685.35575
181.263	65710.57676
181.472	65607.53711
181.681	65740.41169
181.89	65676.18989
182.098	65609.82296
182.307	65717.45902
182.516	65678.48108
182.724	65694.5245
182.933	65657.86678
183.142	65781.77257
183.35	65678.48108
183.559	65685.35575
183.767	65701.40296
183.976	65731.22844
184.184	65745.00441
184.393	65671.60803
184.601	65731.22844
184.81	65612.10898
185.018	65735.8197
185.227	65673.89887
185.435	65754.19205
185.644	65657.86678
185.852	65800.17432
186.06	65655.57719
186.269	65655.57719
186.477	65650.99856
186.685	65699.10996
186.894	65609.82296
187.102	65694.5245
187.31	65625.82885
187.518	65699.10996
187.727	65784.07214
187.935	65761.0847
188.143	65701.40296
188.351	65669.31738
188.559	65761.0847
188.768	65623.54176
188.976	65644.13196
189.184	65660.15654
189.392	65657.86678
189.6	65667.0269
189.808	65586.97241
190.016	65728.93308
190.224	65717.45902
190.432	65687.64767
190.64	65692.23204
190.848	65683.06402
191.056	65634.97898
191.264	65673.89887
191.472	65699.10996
191.679	65715.16475
191.887	65708.28304
192.095	65790.97196
192.303	65671.60803
192.511	65722.0481
192.719	65797.87345
192.926	65641.84345
193.134	65797.87345
193.342	65726.6379
193.55	65705.9895
193.757	65699.10996
193.965	65676.18989
194.173	65660.15654
194.38	65765.68072
194.588	65740.41169
194.796	65719.75347
195.003	65644.13196
195.211	65740.41169
195.418	65722.0481
195.626	65788.67184
195.833	65683.06402
196.041	65639.55512
196.248	65699.10996
196.456	65641.84345
196.663	65598.39548
196.871	65728.93308
197.078	65680.77246
197.285	65705.9895
197.493	65680.77246
197.7	65561.85712
197.908	65673.89887
198.115	65715.16475
198.322	65685.35575
198.529	65756.48942
198.737	65774.87496
198.944	65680.77246
199.151	65772.57612
199.358	65738.1156
199.566	65816.28557
199.773	65607.53711
199.98	65703.69614
200.187	65733.52398
200.394	65696.81714
200.601	65575.55374
200.809	65786.3719
201.016	65673.89887
201.223	65667.0269
201.43	65781.77257
201.637	65724.34291
201.844	65728.93308
202.051	65802.47537
202.258	65678.48108
202.465	65719.75347
202.672	65790.97196
202.878	65696.81714
203.085	65724.34291
203.292	65678.48108
203.499	65648.70952
203.706	65696.81714
203.913	65694.5245
204.12	65756.48942
204.326	65738.1156
204.533	65749.59787
204.74	65639.55512
204.947	65687.64767
205.153	65699.10996
205.36	65683.06402
205.567	65788.67184
205.773	65781.77257
205.98	65660.15654
206.187	65703.69614
206.393	65694.5245
206.6	65717.45902
206.806	65758.78697
207.013	65632.69118
207.22	65639.55512
207.426	65749.59787
207.633	65689.93977
207.839	65623.54176
208.046	65655.57719
208.252	65657.86678
208.458	65653.28779
208.665	65680.77246
208.871	65719.75347
209.078	65612.10898
209.284	65703.69614
209.49	65715.16475
209.697	65717.45902
209.903	65756.48942
210.109	65722.0481
210.316	65655.57719
210.522	65735.8197
210.728	65673.89887
210.934	65477.53288
211.14	65717.45902
211.347	65777.17398
211.553	65662.44648
211.759	65685.35575
211.965	65639.55512
212.171	65662.44648
212.377	65628.11612
212.583	65689.93977
212.789	65726.6379
212.996	65676.18989
213.202	65641.84345
213.408	65683.06402
213.614	65689.93977
213.82	65738.1156
214.025	65722.0481
214.231	65767.979
214.437	65726.6379
214.643	65623.54176
214.849	65687.64767
215.055	65694.5245
215.261	65751.89487
215.467	65685.35575
215.672	65765.68072
215.878	65625.82885
216.084	65745.00441
216.29	65685.35575
216.496	65609.82296
216.701	65653.28779
216.907	65747.30105
217.113	65687.64767
217.318	65618.96812
217.524	65731.22844
217.73	65742.70796
217.935	65710.57676
218.141	65657.86678
218.346	65676.18989
218.552	65708.28304
218.758	65676.18989
218.963	65664.7366
219.169	65673.89887
219.374	65685.35575
219.58	65685.35575
219.785	65705.9895
219.991	65632.69118
220.196	65786.3719
220.401	65719.75347
