Data from Subt4__0__10-20-14-245.txt Node

Date: Tue Oct 07 10:20:14 EDT 2025
User: brett
Spectrometer: USB4F03499
Trigger mode: 4
Integration Time (sec): 3.000000E-3
Scans to average: 1
Electric dark correction enabled: true
Nonlinearity correction enabled: true
Boxcar width: 0
XAxis mode: Wavelengths
Number of Pixels in Spectrum: 3648
>>>>>Begin Spectral Data<<<<<
345.386	82.03237
345.605	82.03237
345.824	82.03237
346.044	66.54545
346.263	155.99943
346.482	39.35575
346.701	-22.23784
346.92	7.82689
347.139	-29.8458
347.358	-32.00203
347.577	-4.88992
347.796	12.46934
348.015	-62.5868
348.234	16.87581
348.453	42.02373
348.672	6.60574
348.891	26.40201
349.11	7.33334
349.329	66.69245
349.548	148.28859
349.767	199.37871
349.986	146.49848
350.205	178.7282
350.424	208.50099
350.643	209.50886
350.862	166.44726
351.08	81.1083
351.299	158.65393
351.518	143.60175
351.737	253.67219
351.956	191.92356
352.174	281.68197
352.393	239.99235
352.612	257.75884
352.831	211.32071
353.049	278.64587
353.268	235.09761
353.487	165.65286
353.705	284.36133
353.924	306.93307
354.143	171.39006
354.361	221.63872
354.58	290.09102
354.798	207.42867
355.017	178.92334
355.236	188.81544
355.454	274.99078
355.673	273.83273
355.891	257.63212
356.11	252.72789
356.328	286.08553
356.547	263.49959
356.765	281.4949
356.984	261.2046
357.202	321.89659
357.42	379.01194
357.639	325.4472
357.857	312.89193
358.076	227.03014
358.294	286.9002
358.512	261.14088
358.731	280.89514
358.949	287.08628
359.167	204.24439
359.386	266.61504
359.604	285.17697
359.822	316.8506
360.04	321.66137
360.259	307.81136
360.477	382.78734
360.695	342.38656
360.913	332.57537
361.131	385.27691
361.35	416.9231
361.568	381.89597
361.786	443.29138
362.004	366.79365
362.222	442.66102
362.44	432.02969
362.658	519.57808
362.876	467.52274
363.094	454.72888
363.312	541.49296
363.53	522.26451
363.749	569.23862
363.967	574.56654
364.184	641.08984
364.402	728.75044
364.62	700.40134
364.838	836.24015
365.056	671.34842
365.274	797.13114
365.492	676.65135
365.71	830.00042
365.928	806.01971
366.146	856.35123
366.364	862.92994
366.581	844.62525
366.799	817.17954
367.017	929.99009
367.235	918.61371
367.453	1027.89084
367.67	1023.49062
367.888	1029.42815
368.106	999.18861
368.323	879.07877
368.541	1039.62802
368.759	1214.50634
368.977	1173.08167
369.194	1102.58097
369.412	1042.19
369.629	1171.35208
369.847	981.3305
370.065	1143.95912
370.282	1157.02707
370.5	1250.57922
370.717	1127.35757
370.935	1142.01504
371.152	1184.53938
371.37	1222.03237
371.588	1147.05929
371.805	1142.68473
372.022	1109.93254
372.24	1089.31126
372.457	1226.45331
372.675	1294.96968
372.892	1201.25075
373.11	1270.59238
373.327	1232.82473
373.544	1235.15247
373.762	1202.95994
373.979	1227.78057
374.196	1244.98471
374.414	1223.98369
374.631	1239.695
374.848	1334.63922
375.066	1288.52149
375.283	1382.44925
375.5	1341.97587
375.717	1408.7984
375.935	1396.56566
376.152	1494.03304
376.369	1363.96105
376.586	1492.06592
376.803	1385.68672
377.02	1507.88793
377.238	1444.23527
377.455	1484.69807
377.672	1477.45103
377.889	1474.42104
378.106	1520.84095
378.323	1552.87557
378.54	1554.27196
378.757	1565.24673
378.974	1509.80628
379.191	1671.01684
379.408	1599.86301
379.625	1738.03046
379.842	1547.43388
380.059	1657.08506
380.276	1642.83711
380.493	1613.36949
380.71	1660.02069
380.927	1584.8978
381.143	1575.70274
381.36	1687.49872
381.577	1660.68931
381.794	1633.87742
382.011	1673.04
382.228	1651.2409
382.444	1597.53397
382.661	1683.57011
382.878	1499.16214
383.095	1649.17107
383.311	1694.02926
383.528	1495.06082
383.745	1489.70081
383.962	1681.94157
384.178	1515.84225
384.395	1522.79662
384.612	1467.65772
384.828	1557.38573
385.045	1529.88683
385.261	1559.30918
385.478	1603.56085
385.695	1667.41149
385.911	1742.98976
386.128	1692.47239
386.344	1657.18211
386.561	1707.43435
386.777	1743.54085
386.994	1818.00908
387.21	1883.01683
387.427	1911.30408
387.643	2037.80566
387.86	2049.56461
388.076	1930.29474
388.292	2088.1341
388.509	1997.16259
388.725	2181.42587
388.942	2228.31447
389.158	2422.41464
389.374	2272.63944
389.591	2227.88794
389.807	2123.66721
390.023	2336.36616
390.239	2212.54558
390.456	2328.11277
390.672	2192.44454
390.888	2332.42154
391.104	2192.96358
391.321	2261.80602
391.537	2370.59073
391.753	2451.0677
391.969	2418.4595
392.185	2485.02322
392.401	2467.84022
392.618	2463.37578
392.834	2342.09385
393.05	2500.95157
393.266	2447.21088
393.482	2479.12649
393.698	2402.85038
393.914	2514.31474
394.13	2588.48641
394.346	2512.54408
394.562	2555.25024
394.778	2555.73809
394.994	2552.47496
395.21	2630.1047
395.426	2846.7612
395.642	2760.82568
395.858	2924.70767
396.073	2800.61366
396.289	2965.74783
396.505	2950.31848
396.721	3005.1799
396.937	3130.38287
397.153	2889.18574
397.369	3142.67493
397.584	3453.77092
397.8	3220.87231
398.016	3418.2842
398.232	3767.4397
398.447	3605.00893
398.663	3850.92809
398.879	3856.18842
399.094	4037.19709
399.31	4064.38297
399.526	4004.52922
399.741	4251.61277
399.957	4401.85404
400.173	4299.31348
400.388	4420.64514
400.604	4401.24421
400.82	4551.51931
401.035	4886.76936
401.251	4752.39968
401.466	4701.97069
401.682	5031.61075
401.897	5249.72298
402.113	5333.74598
402.328	5198.78415
402.544	5366.0968
402.759	5170.99948
402.974	5347.91516
403.19	5276.37841
403.405	5486.30116
403.621	5845.36631
403.836	5669.68736
404.051	6070.98649
404.267	5917.68144
404.482	5719.59713
404.697	5544.29787
404.913	5588.4512
405.128	6104.64773
405.343	5801.61556
405.559	5820.27323
405.774	5872.47465
405.989	6183.10993
406.204	6055.21164
406.42	5963.3815
406.635	5972.06583
406.85	5820.54954
407.065	5963.79951
407.28	6121.94906
407.495	6132.15039
407.71	5891.55464
407.926	5964.43081
408.141	6547.43242
408.356	6151.6021
408.571	6270.51291
408.786	6054.80672
409.001	6254.42687
409.216	6567.93524
409.431	6511.21954
409.646	6419.85796
409.861	6481.89773
410.076	6353.91016
410.291	6368.77563
410.506	6680.97989
410.721	6464.90115
410.936	6605.38521
411.15	6649.83582
411.365	6638.569
411.58	6809.81715
411.795	6688.20367
412.01	7105.1764
412.225	7033.60413
412.439	6626.87733
412.654	6924.29792
412.869	6822.1992
413.084	6895.69221
413.299	7027.94622
413.513	6805.58369
413.728	6753.44418
413.943	7085.47308
414.157	7236.37715
414.372	6933.1227
414.587	7136.52119
414.801	7510.88135
415.016	7278.14094
415.231	7439.46556
415.445	7261.68506
415.66	7402.99185
415.874	7620.25765
416.089	7316.14512
416.304	7747.14978
416.518	7426.00293
416.733	7483.77235
416.947	7224.60347
417.162	7371.53291
417.376	7614.10972
417.59	7943.04264
417.805	7750.08556
418.019	7544.38034
418.234	7466.74438
418.448	7370.35445
418.663	7707.98829
418.877	7616.51862
419.091	7761.95997
419.306	7707.59987
419.52	7548.37824
419.734	7556.8604
419.949	7930.23159
420.163	8232.63
420.377	7496.95751
420.591	7600.97832
420.806	7866.49798
421.02	7673.88066
421.234	8078.61456
421.448	7848.43407
421.663	7911.07921
421.877	7818.11773
422.091	7633.88045
422.305	7649.81975
422.519	7798.13827
422.733	8361.31119
422.947	7877.9857
423.161	7943.76795
423.376	7896.40021
423.59	8029.36521
423.804	8034.61892
424.018	8037.85218
424.232	8039.96008
424.446	8456.27096
424.66	8330.41143
424.874	8090.37263
425.088	7848.82683
425.302	8022.8002
425.515	8414.77645
425.729	8418.37027
425.943	8599.46932
426.157	8485.41396
426.371	8179.91713
426.585	8336.51027
426.799	8221.73524
427.013	8760.65359
427.226	8726.4005
427.44	8097.18546
427.654	7862.44006
427.868	8013.86845
428.081	8259.27731
428.295	8177.90363
428.509	8063.08901
428.723	8089.33855
428.936	8252.7165
429.15	7931.18407
429.364	8188.64118
429.577	7733.20427
429.791	8094.55405
430.005	8566.16562
430.218	8551.02943
430.432	8035.34634
430.645	8112.54275
430.859	8317.29784
431.073	8508.46525
431.286	8939.1558
431.5	8934.95681
431.713	8646.11782
431.927	8528.12114
432.14	8832.73274
432.354	8809.05843
432.567	8563.22991
432.781	9238.73262
432.994	9167.48548
433.207	9240.71156
433.421	9590.55897
433.634	9461.4064
433.848	9745.07473
434.061	9465.50178
434.274	8832.50423
434.488	9305.16121
434.701	9227.51023
434.914	9256.94657
435.127	9913.52406
435.341	9914.66366
435.554	10050.72665
435.767	10455.68402
435.98	10595.73239
436.194	9947.9745
436.407	10025.9209
436.62	11189.14537
436.833	10809.98449
437.046	10488.18681
437.259	10366.72474
437.473	10695.6651
437.686	11051.21676
437.899	10764.46241
438.112	11166.51273
438.325	10561.4398
438.538	10736.41418
438.751	11680.49591
438.964	10853.32408
439.177	11093.87998
439.39	11255.23029
439.603	11915.37047
439.816	11445.58069
440.029	12060.48228
440.242	12318.6283
440.455	12545.91956
440.668	12157.95443
440.881	11485.19867
441.094	11507.23204
441.306	11940.4488
441.519	12770.21635
441.732	12517.09489
441.945	12763.94836
442.158	11926.09802
442.37	11851.67864
442.583	12465.78712
442.796	12964.17077
443.009	12716.83669
443.222	12493.05685
443.434	11857.12184
443.647	12895.25116
443.86	13330.72313
444.072	13776.39661
444.285	13325.42765
444.498	13671.97768
444.71	13193.38376
444.923	13426.77342
445.136	12973.35699
445.348	12784.55247
445.561	12882.31896
445.773	13303.64818
445.986	12421.9002
446.198	13769.23416
446.411	13840.57265
446.623	14223.25377
446.836	13849.38022
447.048	14099.58484
447.261	14620.06799
447.473	14541.05473
447.686	13901.67443
447.898	14187.9457
448.11	15062.55371
448.323	15214.69757
448.535	14963.45348
448.748	14167.09299
448.96	13905.62062
449.172	14391.29617
449.385	13705.75443
449.597	14478.29268
449.809	14455.82286
450.021	14862.76808
450.234	14913.43336
450.446	14084.32091
450.658	14294.82665
450.87	14594.70427
451.083	14719.71543
451.295	15037.63537
451.507	14592.93975
451.719	14553.16679
451.931	15120.39249
452.143	15203.59322
452.356	14686.67937
452.568	14927.96665
452.78	14905.58446
452.992	15395.04802
453.204	15873.12287
453.416	15371.9683
453.628	14601.65455
453.84	15017.06752
454.052	15027.6641
454.264	15836.509
454.476	15644.32981
454.688	16487.5607
454.9	16681.80535
455.112	15709.03125
455.324	15107.47257
455.536	15780.12551
455.747	16034.13397
455.959	16085.30499
456.171	16337.45479
456.383	15716.19366
456.595	14984.75527
456.807	15460.9752
457.018	15310.1775
457.23	16313.29612
457.442	15417.3104
457.654	16015.09035
457.865	15877.82639
458.077	15478.26765
458.289	15594.15703
458.501	15823.14836
458.712	16851.88395
458.924	17470.13962
459.136	16540.70353
459.347	16135.52277
459.559	16371.70575
459.77	17439.92841
459.982	17548.15026
460.194	17467.28166
460.405	16446.1009
460.617	16712.0914
460.828	17770.04924
461.04	17731.41872
461.251	17093.87203
461.463	18673.368
461.674	18188.61757
461.886	18240.00208
462.097	17461.9045
462.309	17935.8378
462.52	17187.12801
462.731	18858.30719
462.943	17480.73916
463.154	17231.22118
463.366	17506.88688
463.577	18076.08169
463.788	18620.70426
464	18647.86314
464.211	18939.67491
464.422	20168.57193
464.634	19612.54448
464.845	19403.72835
465.056	19625.34162
465.267	19745.28058
465.478	18665.4583
465.69	19870.70538
465.901	19404.39135
466.112	19896.65286
466.323	19922.7252
466.534	20436.68423
466.745	20573.39956
466.957	20546.6162
467.168	20340.89591
467.379	20287.23569
467.59	19946.45331
467.801	19524.40211
468.012	20530.29802
468.223	20504.54221
468.434	20073.83319
468.645	21274.83132
468.856	21682.19643
469.067	21333.76168
469.278	21573.14271
469.489	21770.69346
469.7	20812.93007
469.911	20991.90889
470.122	22533.39636
470.333	23102.43844
470.543	21712.69217
470.754	22809.82025
470.965	22619.21556
471.176	22719.73882
471.387	23743.82003
471.598	22912.16594
471.808	22722.48502
472.019	23252.80092
472.23	23526.77416
472.441	23386.02018
472.651	23886.31131
472.862	23831.89848
473.073	24654.57781
473.283	24125.3344
473.494	23724.79155
473.705	24142.97225
473.915	24458.7228
474.126	25964.11358
474.337	25354.713
474.547	25766.20065
474.758	26193.3398
474.968	25924.01991
475.179	26305.75781
475.389	26575.24466
475.6	26491.60834
475.81	27017.81644
476.021	27521.59633
476.231	27508.92888
476.442	27563.01496
476.652	27401.17957
476.863	27637.43542
477.073	27834.08656
477.284	28153.80291
477.494	28293.14959
477.704	29433.19174
477.915	30266.73039
478.125	28807.4038
478.335	29692.27772
478.546	30612.83534
478.756	29665.68231
478.966	30477.20515
479.177	30554.39602
479.387	30921.41651
479.597	30923.42194
479.807	30871.50573
480.018	31128.99043
480.228	31682.1429
480.438	31591.24262
480.648	32061.92666
480.858	31836.47115
481.068	31553.6571
481.279	32055.79638
481.489	32924.91723
481.699	32928.54204
481.909	32683.0344
482.119	33922.05574
482.329	33839.59869
482.539	33580.84181
482.749	33439.95256
482.959	33458.7665
483.169	34107.58656
483.379	33797.76088
483.589	34202.4853
483.799	33877.65168
484.009	33976.85604
484.219	33799.19938
484.429	34392.07967
484.639	34107.09569
484.849	34350.52311
485.059	34822.86805
485.268	34920.28918
485.478	35025.38572
485.688	34255.12168
485.898	34552.93363
486.108	34948.16016
486.317	34818.30881
486.527	35263.64874
486.737	35652.0721
486.947	35418.38809
487.156	36020.58696
487.366	35947.89722
487.576	35577.19994
487.785	35768.18862
487.995	35669.09367
488.205	36131.7609
488.414	36289.1204
488.624	36348.88425
488.834	36155.60774
489.043	36157.36619
489.253	36023.58298
489.462	36500.05539
489.672	36791.92923
489.882	36899.5691
490.091	36930.35471
490.301	36950.74281
490.51	36984.75889
490.72	37266.37521
490.929	37327.18525
491.138	37494.21361
491.348	37404.08728
491.557	37497.87196
491.767	37625.77206
491.976	37662.79726
492.185	37808.33538
492.395	37854.89242
492.604	38082.28696
492.813	38050.73808
493.023	38255.4519
493.232	38160.41756
493.441	38270.86238
493.651	38401.88456
493.86	38283.3819
494.069	38487.77945
494.278	38492.91981
494.488	38499.59344
494.697	38617.38883
494.906	38571.15386
495.115	38672.8784
495.324	38593.905
495.533	38751.80288
495.743	38623.65612
495.952	38733.47636
496.161	38677.64366
496.37	38835.57319
496.579	38766.88262
496.788	38888.83687
496.997	38819.41169
497.206	38825.42947
497.415	38884.0617
497.624	38869.38872
497.833	38931.08228
498.042	38860.64846
498.251	38837.16319
498.46	38964.88581
498.669	38865.77271
498.878	38946.93565
499.087	38929.25672
499.296	39008.98565
499.504	38923.7683
499.713	38990.69284
499.922	38957.22256
500.131	39022.31748
500.34	38941.13963
500.549	39063.39969
500.757	39003.85818
500.966	39040.63724
501.175	38985.47239
501.384	39014.26135
501.592	38939.22757
501.801	39017.56946
502.01	38851.28786
502.218	39017.17988
502.427	38955.04698
502.636	39037.00444
502.844	38980.02062
503.053	39034.03927
503.262	39024.84409
503.47	39060.09794
503.679	39051.66412
503.887	39093.51544
504.096	39003.38581
504.304	39067.82396
504.513	39091.72777
504.721	39117.7808
504.93	39055.44011
505.138	39124.41713
505.347	39036.85121
505.555	39099.16254
505.764	39102.09447
505.972	39123.75126
506.18	39135.48666
506.389	39168.5752
506.597	39112.85563
506.806	39159.42167
507.014	39144.03519
507.222	39169.76768
507.431	39208.24004
507.639	39167.97235
507.847	39195.05866
508.055	39202.8609
508.264	39231.42959
508.472	39246.90564
508.68	39177.61366
508.888	39288.80586
509.096	39210.66998
509.305	39296.57777
509.513	39313.81769
509.721	39325.60249
509.929	39293.64481
510.137	39402.00765
510.345	39332.93878
510.553	39388.83896
510.762	39384.41411
510.97	39412.05076
511.178	39428.13075
511.386	39438.49939
511.594	39429.63874
511.802	39453.9756
512.01	39446.60075
512.218	39450.72328
512.426	39477.81496
512.634	39473.16075
512.842	39487.38322
513.049	39477.21334
513.257	39470.16779
513.465	39508.04593
513.673	39482.28276
513.881	39540.00941
514.089	39525.28495
514.297	39547.00772
514.504	39520.51572
514.712	39505.51797
514.92	39524.93094
515.128	39492.73826
515.336	39543.69614
515.543	39566.09944
515.751	39521.65537
515.959	39520.64232
516.166	39520.92831
516.374	39518.85095
516.582	39480.67832
516.789	39500.44634
516.997	39516.54126
517.205	39531.89811
517.412	39530.0648
517.62	39430.69067
517.827	39516.07124
518.035	39470.92251
518.243	39445.90024
518.45	39478.16427
518.658	39407.6232
518.865	39367.65685
519.073	39354.77609
519.28	39344.43144
519.488	39375.58633
519.695	39306.58542
519.902	39354.63159
520.11	39337.00009
520.317	39335.19599
520.525	39330.78231
520.732	39345.49007
520.939	39331.50875
521.147	39365.66595
521.354	39381.41949
521.561	39325.36156
521.769	39409.37133
521.976	39403.89258
522.183	39363.10653
522.391	39400.24971
522.598	39414.92785
522.805	39435.15663
523.012	39439.18811
523.219	39381.22651
523.427	39395.57317
523.634	39479.26113
523.841	39529.26884
524.048	39416.46515
524.255	39483.34256
524.462	39457.21945
524.669	39447.84368
524.877	39458.37737
525.084	39493.72405
525.291	39447.00392
525.498	39506.95559
525.705	39469.84945
525.912	39501.87643
526.119	39483.4269
526.326	39541.88846
526.533	39504.77697
526.74	39501.2485
526.947	39454.71447
527.153	39538.32282
527.36	39544.12365
527.567	39560.00483
527.774	39511.52423
527.981	39635.65766
528.188	39575.35703
528.395	39613.63322
528.602	39555.62456
528.808	39597.52482
529.015	39602.63467
529.222	39626.54648
529.429	39595.35172
529.635	39637.19584
529.842	39609.27446
530.049	39640.52226
530.256	39616.64038
530.462	39628.45734
530.669	39642.71644
530.876	39653.43988
531.082	39671.411
531.289	39676.59702
531.495	39597.03297
531.702	39691.31525
531.909	39650.19767
532.115	39685.43091
532.322	39661.20325
532.528	39720.36144
532.735	39700.47139
532.941	39729.53417
533.148	39750.82962
533.354	39704.63246
533.561	39699.12901
533.767	39725.25327
533.974	39768.49872
534.18	39747.62087
534.387	39658.05444
534.593	39774.04953
534.799	39712.72504
535.006	39796.1081
535.212	39693.34789
535.418	39766.04829
535.625	39747.24305
535.831	39735.27227
536.037	39710.63534
536.244	39728.6671
536.45	39725.25327
536.656	39738.58566
536.862	39802.01414
537.068	39823.04596
537.275	39735.67683
537.481	39796.95805
537.687	39761.64674
537.893	39770.21316
538.099	39763.87259
538.305	39795.9212
538.512	39738.99028
538.718	39787.46534
538.924	39729.12026
539.13	39754.18977
539.336	39799.15191
539.542	39816.09819
539.748	39805.38703
539.954	39854.65545
540.16	39773.48724
540.366	39835.98068
540.572	39790.72591
540.778	39843.30537
540.984	39817.53676
541.19	39827.57398
541.396	39831.8573
541.602	39807.06793
541.807	39821.57767
542.013	39859.49725
542.219	39801.44401
542.425	39819.86011
542.631	39810.26253
542.837	39828.7164
543.042	39790.11609
543.248	39835.66861
543.454	39853.20826
543.66	39831.66873
543.865	39833.04565
544.071	39846.73368
544.277	39815.42325
544.483	39890.40174
544.688	39825.38324
544.894	39843.38344
545.1	39823.91672
545.305	39857.07672
545.511	39795.7064
545.716	39855.6105
545.922	39838.22269
546.128	39795.14217
546.333	39872.02583
546.539	39903.27003
546.744	39865.77561
546.95	39911.02727
547.155	39843.36641
547.361	39868.08508
547.566	39861.40367
547.772	39920.93442
547.977	39867.99985
548.182	39908.09001
548.388	39828.7164
548.593	39893.02973
548.799	39841.95305
549.004	39875.40217
549.209	39869.862
549.415	39883.79978
549.62	39842.71551
549.825	39893.70373
550.031	39859.54102
550.236	39853.26115
550.441	39781.37007
550.646	39900.63292
550.852	39791.60326
551.057	39811.34969
551.262	39835.93691
551.467	39787.41237
551.672	39791.15982
551.878	39800.21514
552.083	39782.97816
552.288	39780.73898
552.493	39759.45475
552.698	39750.71391
552.903	39764.58103
553.108	39747.6684
553.313	39691.25902
553.518	39732.60382
553.723	39750.58629
553.928	39740.05122
554.133	39749.84481
554.338	39756.1414
554.543	39730.01511
554.748	39742.20007
554.953	39732.96601
555.158	39736.29731
555.363	39736.24516
555.568	39733.80678
555.773	39736.2292
555.978	39768.99885
556.182	39716.41824
556.387	39829.57109
556.592	39725.99568
556.797	39767.89439
557.002	39736.27922
557.206	39810.15556
557.411	39747.28915
557.616	39758.76697
557.821	39725.29135
558.025	39800.57911
558.23	39746.56398
558.435	39876.68745
558.64	39760.88898
558.844	39770.91643
559.049	39766.4272
559.253	39768.36552
559.458	39738.86817
559.663	39774.22998
559.867	39729.75001
560.072	39765.41347
560.276	39766.82365
560.481	39781.94267
560.685	39741.51686
560.89	39768.70741
561.094	39746.27568
561.299	39779.33536
