Data from mildly cloudy_Subt2__12__14-23-40-170.txt Node

Date: Mon Oct 13 14:23:40 EDT 2025
User: brett
Spectrometer: USB4F03499
Trigger mode: 4
Integration Time (sec): 4.400000E-4
Scans to average: 1
Electric dark correction enabled: true
Nonlinearity correction enabled: true
Boxcar width: 0
XAxis mode: Wavelengths
Number of Pixels in Spectrum: 3648
>>>>>Begin Spectral Data<<<<<
345.386	59.16577
345.605	59.16577
345.824	59.16577
346.044	41.16168
346.263	45.61887
346.482	-37.87666
346.701	36.55379
346.92	3.85427
347.139	23.04011
347.358	-16.45499
347.577	-49.18551
347.796	-19.85812
348.015	49.00977
348.234	-20.97079
348.453	-11.93931
348.672	1.59879
348.891	42.22372
349.11	1.59867
349.329	18.51538
349.548	92.98906
349.767	4.98438
349.986	14.00889
350.205	-19.82355
350.424	50.12985
350.643	67.0632
350.862	42.24502
351.08	21.90356
351.299	-2.91275
351.518	-0.65817
351.737	39.97452
351.956	1.59836
352.174	-10.81181
352.393	29.82148
352.612	-16.4569
352.831	15.13625
353.049	-4.04518
353.268	27.55729
353.487	18.52397
353.705	-11.94254
353.924	-33.36658
354.143	34.31179
354.361	-15.34302
354.58	-2.91511
354.798	37.75087
355.017	-35.6196
355.236	25.31971
355.454	-10.81852
355.673	27.55943
355.891	-25.48765
356.11	7.23474
356.328	33.1818
356.547	-10.81516
356.765	21.91119
356.984	6.11185
357.202	36.6062
357.42	37.71567
357.639	20.78714
357.857	-25.48864
358.076	30.92223
358.294	-41.29293
358.512	-11.93746
358.731	-28.84947
358.949	-22.08944
359.167	-2.91466
359.386	25.28145
359.604	-11.93885
359.822	45.59239
360.04	-6.30174
360.259	0.46988
360.477	70.40432
360.695	-14.19501
360.913	-18.70516
361.131	-18.70661
361.35	32.05319
361.568	30.94017
361.786	-1.7863
362.004	7.23447
362.222	25.30887
362.44	-8.55213
362.658	68.17208
362.876	-27.72876
363.094	-0.6582
363.312	-27.76534
363.53	43.34465
363.749	-8.54982
363.967	-1.78582
364.184	35.4419
364.402	30.9306
364.62	14.01486
364.838	-33.35372
365.056	-16.47096
365.274	-1.78602
365.492	6.11162
365.71	43.35472
365.928	-54.83566
366.146	30.95939
366.364	-45.77244
366.581	-17.5898
366.799	11.75015
367.017	-11.93746
367.235	-18.70444
367.453	-14.19885
367.67	12.8839
367.888	29.80531
368.106	4.98612
368.323	-28.86731
368.541	33.19464
368.759	10.6244
368.977	8.37145
369.194	-18.69075
369.412	27.56906
369.629	29.84121
369.847	-0.65787
370.065	19.65729
370.282	6.11375
370.5	-1.78706
370.717	-26.61264
370.935	6.11185
371.152	34.33571
371.37	-16.45945
371.588	-26.6075
371.805	34.33571
372.022	4.98168
372.24	16.28177
372.457	-18.70733
372.675	9.49706
372.892	26.44355
373.11	46.73219
373.327	29.80531
373.544	11.76291
373.762	11.74336
373.979	-18.69723
374.196	11.76017
374.414	41.11837
374.631	4.98361
374.848	30.95578
375.066	-25.47877
375.283	32.05071
375.5	23.01964
375.717	9.49339
375.935	20.79198
376.152	11.75061
376.369	65.90005
376.586	6.11043
376.803	-17.57145
377.02	33.19721
377.238	26.40874
377.455	69.29911
377.672	9.49229
377.889	79.47117
378.106	11.75379
378.323	53.52508
378.54	47.84296
378.757	2.7254
378.974	57.98427
379.191	23.01876
379.408	35.42003
379.625	37.72006
379.842	62.4928
380.059	19.65652
380.276	107.59238
380.493	39.93898
380.71	39.94823
380.927	77.18113
381.143	48.95295
381.36	52.37899
381.577	-0.65792
381.794	71.46757
382.011	66.98293
382.228	21.8892
382.444	-23.19551
382.661	113.17599
382.878	62.4928
383.095	59.10175
383.311	49.00407
383.528	72.60429
383.745	81.63058
383.962	78.22932
384.178	79.27579
384.395	108.63015
384.612	121.14247
384.828	79.23953
385.045	141.18792
385.261	105.18767
385.478	149.23678
385.695	102.96714
385.911	127.63981
386.128	150.10255
386.344	201.08116
386.561	196.44479
386.777	159.07905
386.994	166.80493
387.21	164.63805
387.427	189.41957
387.643	251.32379
387.86	188.25557
388.076	251.01018
388.292	268.92637
388.509	227.66953
388.725	363.13713
388.942	338.5095
389.158	355.37688
389.374	368.27635
389.591	322.39887
389.807	406.13522
390.023	384.60613
390.239	393.43591
390.456	521.87118
390.672	459.49083
390.888	510.8304
391.104	593.801
391.321	596.90445
391.537	688.36962
391.753	682.03251
391.969	716.43112
392.185	817.15229
392.401	785.2714
392.618	823.7979
392.834	760.78314
393.05	968.25148
393.266	979.2324
393.482	1022.48797
393.698	903.00961
393.914	960.5531
394.13	1033.52073
394.346	956.2314
394.562	1026.57357
394.778	1044.95156
394.994	1064.87161
395.21	1181.74587
395.426	1292.71883
395.642	1259.41789
395.858	1362.90411
396.073	1322.34283
396.289	1320.97472
396.505	1372.72155
396.721	1437.9406
396.937	1464.07492
397.153	1390.82638
397.369	1498.26336
397.584	1568.76458
397.8	1492.17819
398.016	1493.11558
398.232	1692.15435
398.447	1611.91004
398.663	1651.54776
398.879	1640.90955
399.094	1758.72796
399.31	1783.02062
399.526	1814.46198
399.741	1950.42188
399.957	1962.60836
400.173	2059.20559
400.388	2067.14105
400.604	2094.19139
400.82	2310.94157
401.035	2366.59791
401.251	2428.04619
401.466	2439.76837
401.682	2562.91123
401.897	2636.26867
402.113	2660.1687
402.328	2889.45431
402.544	2893.59478
402.759	3050.3651
402.974	3122.55915
403.19	3025.28796
403.405	3423.66413
403.621	3507.81866
403.836	3561.71748
404.051	3754.39424
404.267	3794.49236
404.482	3716.82196
404.697	3713.66635
404.913	3816.13183
405.128	4262.24496
405.343	4083.48662
405.559	4136.42184
405.774	4205.39463
405.989	4457.61534
406.204	4487.69186
406.42	4537.96061
406.635	4612.33994
406.85	4600.43487
407.065	4718.16742
407.28	4775.54391
407.495	4866.28769
407.71	4770.03974
407.926	4865.72103
408.141	5172.10148
408.356	5179.24724
408.571	5288.32705
408.786	5117.22741
409.001	5237.68877
409.216	5370.08777
409.431	5424.75372
409.646	5367.56684
409.861	5218.23494
410.076	5163.74992
410.291	5450.44486
410.506	5584.63277
410.721	5298.32365
410.936	5447.34938
411.15	5361.37783
411.365	5600.16603
411.58	5630.61827
411.795	5576.06671
412.01	5765.15491
412.225	5775.39153
412.439	5522.4523
412.654	5721.46206
412.869	5649.23418
413.084	5824.02269
413.299	5913.44989
413.513	5604.60294
413.728	5767.24712
413.943	6007.73058
414.157	5962.41677
414.372	6042.82458
414.587	6146.92834
414.801	6371.79788
415.016	6317.10747
415.231	6435.37716
415.445	6334.67273
415.66	6401.37812
415.874	6518.28774
416.089	6456.40842
416.304	6834.77598
416.518	6529.19515
416.733	6628.10785
416.947	6546.86152
417.162	6586.43076
417.376	6794.41183
417.59	7031.77485
417.805	6885.10682
418.019	6819.98611
418.234	6836.32524
418.448	6677.29731
418.663	6955.5239
418.877	6826.10214
419.091	7015.52757
419.306	7035.28921
419.52	7197.68213
419.734	6976.48335
419.949	7300.86557
420.163	7539.1379
420.377	7090.81967
420.591	7219.9977
420.806	7267.08495
421.02	7129.85094
421.234	7523.99537
421.448	7359.89833
421.663	7522.56341
421.877	7332.88973
422.091	7390.13592
422.305	7242.64939
422.519	7336.96004
422.733	7816.98003
422.947	7417.01686
423.161	7429.41961
423.376	7623.53856
423.59	7615.81443
423.804	7594.96765
424.018	7523.26091
424.232	7569.09898
424.446	7875.73993
424.66	7855.62095
424.874	7702.3406
425.088	7558.93317
425.302	7558.90967
425.515	7866.57054
425.729	8034.9527
425.943	8044.13996
426.157	7916.62466
426.371	7852.96905
426.585	7945.37244
426.799	7911.12917
427.013	8388.56044
427.226	8399.47685
427.44	7933.57538
427.654	8048.81804
427.868	7895.33113
428.081	8080.9935
428.295	8034.02231
428.509	8043.92756
428.723	7967.06587
428.936	7863.73747
429.15	7872.21426
429.364	8143.88518
429.577	7822.61876
429.791	7793.91662
430.005	8274.98578
430.218	8157.62163
430.432	7760.92951
430.645	7789.88896
430.859	7936.67085
431.073	7893.32766
431.286	8183.24343
431.5	8171.80333
431.713	7734.51899
431.927	7896.71167
432.14	8139.31113
432.354	7942.3105
432.567	7918.55262
432.781	8311.93729
432.994	8278.28579
433.207	8477.00354
433.421	8544.1893
433.634	8450.86192
433.848	8555.13723
434.061	8416.83482
434.274	7956.31498
434.488	8169.61951
434.701	7935.47814
434.914	8101.44037
435.127	8563.68879
435.341	8521.48987
435.554	8600.96256
435.767	8940.24982
435.98	8913.8603
436.194	8581.75991
436.407	8567.88994
436.62	9397.20351
436.833	9324.48038
437.046	9009.60394
437.259	8696.89728
437.473	9153.38086
437.686	9332.79401
437.899	9171.48066
438.112	9465.43146
438.325	8982.33507
438.538	9201.48061
438.751	10007.82708
438.964	9435.02697
439.177	9626.71226
439.39	9729.84853
439.603	10223.72991
439.816	9994.48813
440.029	10522.49925
440.242	10801.79407
440.455	11042.48568
440.668	10782.9911
440.881	10133.33987
441.094	10004.34277
441.306	10795.1115
441.519	11325.28266
441.732	11120.61834
441.945	11357.26286
442.158	10742.33489
442.37	10607.58353
442.583	11290.57324
442.796	11626.91521
443.009	11632.625
443.222	11171.1302
443.434	10592.3254
443.647	11656.32811
443.86	12266.97366
444.072	12499.00416
444.285	12134.08555
444.498	12167.5797
444.71	11907.72898
444.923	12145.37892
445.136	11762.73196
445.348	11448.42568
445.561	11659.65336
445.773	11867.3725
445.986	11234.73436
446.198	12189.52637
446.411	12370.54219
446.623	12390.10084
446.836	12323.98058
447.048	12439.46032
447.261	12868.47856
447.473	12814.23007
447.686	12234.53664
447.898	12510.63251
448.11	13420.28337
448.323	13453.3904
448.535	13120.12174
448.748	12353.61095
448.96	12527.82438
449.172	12717.21614
449.385	12098.69725
449.597	12829.58878
449.809	12887.38027
450.021	13043.25706
450.234	13214.96581
450.446	12338.95019
450.658	12482.03643
450.87	12642.00483
451.083	12708.87289
451.295	12759.31399
451.507	12589.9863
451.719	12657.72823
451.931	12670.49464
452.143	12801.8694
452.356	12516.45925
452.568	12495.40734
452.78	12501.02486
452.992	12594.77232
453.204	12986.29776
453.416	12208.93346
453.628	11548.06456
453.84	11731.96688
454.052	11537.10411
454.264	12091.76782
454.476	11486.22146
454.688	12071.65285
454.9	11761.47326
455.112	10727.32438
455.324	10586.48388
455.536	10723.57709
455.747	10586.57752
455.959	10242.76195
456.171	10318.175
456.383	9655.98517
456.595	9057.53875
456.807	9008.33422
457.018	8654.94298
457.23	8852.91088
457.442	8315.8366
457.654	8250.13847
457.865	7902.41884
458.077	7348.91959
458.289	7096.03961
458.501	7024.16742
458.712	7046.83579
458.924	7078.20197
459.136	6388.36655
459.347	6018.32148
459.559	5783.36728
459.77	5843.67776
459.982	5667.60557
460.194	5389.33859
460.405	4693.00063
460.617	4678.13626
460.828	4571.22462
461.04	4369.26741
461.251	3965.97301
461.463	4197.35863
461.674	3877.82079
461.886	3624.63152
462.097	3288.2093
462.309	3309.81023
462.52	2931.85845
462.731	3277.23087
462.943	2829.17755
463.154	2687.23091
463.366	2594.51848
463.577	2675.78859
463.788	2634.45226
464	2724.42167
464.211	2585.00897
464.422	2739.88318
464.634	2610.90396
464.845	2482.6836
465.056	2582.73128
465.267	2513.94565
465.478	2255.92033
465.69	2540.25812
465.901	2363.19606
466.112	2474.27925
466.323	2441.01463
466.534	2622.40226
466.745	2493.34327
466.957	2605.41012
467.168	2507.52117
467.379	2476.92618
467.59	2370.7392
467.801	2250.06598
468.012	2472.78183
468.223	2642.58621
468.434	2401.7473
468.645	2674.24749
468.856	2541.61892
469.067	2608.98011
469.278	2545.14823
469.489	2646.55893
469.7	2449.62433
469.911	2551.01595
470.122	2746.97715
470.333	2945.99099
470.543	2640.16978
470.754	2799.25937
470.965	2690.77487
471.176	2849.18768
471.387	2944.86163
471.598	2814.73114
471.808	2601.10022
472.019	2889.78199
472.23	2770.64333
472.441	2681.77816
472.651	2886.69716
472.862	2838.21576
473.073	2929.56771
473.283	2945.52946
473.494	2744.35166
473.705	2909.1738
473.915	2858.71729
474.126	3150.06497
474.337	2848.96909
474.547	3031.86149
474.758	3196.20229
474.968	3077.69244
475.179	3052.72436
475.389	3082.56027
475.6	3113.7306
475.81	3311.2835
476.021	3293.31271
476.231	3407.42453
476.442	3271.31907
476.652	3329.02793
476.863	3253.53641
477.073	3291.60911
477.284	3297.26862
477.494	3291.60911
477.704	3548.73653
477.915	3644.78698
478.125	3424.84455
478.335	3602.21565
478.546	3678.06441
478.756	3676.48161
478.966	3677.8474
479.177	3777.70558
479.387	3830.48476
479.597	3729.90387
479.807	3718.46383
480.018	3791.40044
480.228	3792.37914
480.438	3962.39436
480.648	3944.35574
480.858	3933.89386
481.068	3927.76223
481.279	4007.72372
481.489	4109.13262
481.699	4163.47257
481.909	4096.52302
482.119	4410.17173
482.329	4298.61094
482.539	4372.96967
482.749	4193.3082
482.959	4383.85433
483.169	4477.00376
483.379	4483.38433
483.589	4520.66101
483.799	4560.65997
484.009	4409.41716
484.219	4596.82
484.429	4570.38244
484.639	4641.4122
484.849	4639.91801
485.059	4876.56242
485.268	4769.19636
485.478	4921.64356
485.688	4676.06944
485.898	4935.25921
486.108	4766.17635
486.317	4871.0277
486.527	4864.9635
486.737	5071.77828
486.947	5012.50731
487.156	5115.17662
487.366	5010.23934
487.576	4965.25888
487.785	4936.28142
487.995	5009.90189
488.205	4968.99621
488.414	5104.44756
488.624	5058.758
488.834	5087.61719
489.043	5024.47707
489.253	4933.12427
489.462	5071.9071
489.672	5181.53613
489.882	5212.7874
490.091	5264.42165
490.301	5206.74281
490.51	5299.08328
490.72	5328.82944
490.929	5363.05039
491.138	5300.38599
491.348	5290.07403
491.557	5334.8734
491.767	5420.24882
491.976	5294.70617
492.185	5420.55264
492.395	5217.76234
492.604	5427.64992
492.813	5408.66063
493.023	5497.62202
493.232	5383.39073
493.441	5497.69283
493.651	5521.7394
493.86	5426.89395
494.069	5474.92677
494.278	5532.25747
494.488	5599.41112
494.697	5504.51473
494.906	5446.30365
495.115	5730.12114
495.324	5509.50317
495.533	5709.51674
495.743	5765.24343
495.952	5845.25986
496.161	5757.61535
496.37	5817.42447
496.579	5870.92249
496.788	5997.72729
496.997	6002.10329
497.206	5967.17796
497.415	5851.79024
497.624	5916.49553
497.833	6055.05114
498.042	6054.68022
498.251	6084.42645
498.46	6041.48534
498.669	6074.69973
498.878	5939.27575
499.087	6025.51918
499.296	6281.35388
499.504	6124.37222
499.713	6020.43536
499.922	6127.67406
500.131	6109.54739
500.34	6133.25045
500.549	6181.83818
500.757	6089.97705
500.966	6273.82241
501.175	6226.49748
501.384	6299.93944
501.592	6157.47036
501.801	6294.8996
502.01	6189.71764
502.218	6154.68058
502.427	6277.46544
502.636	6202.32421
502.844	6117.01727
503.053	6105.31519
503.262	6124.94833
503.47	6278.46742
503.679	6105.87518
503.887	6253.48637
504.096	6141.39505
504.304	6233.27683
504.513	6125.55196
504.721	6188.07752
504.93	6065.42935
505.138	6255.25422
505.347	6204.03618
505.555	6305.68963
505.764	6126.17223
505.972	6185.994
506.18	5987.03559
506.389	6211.685
506.597	5978.69376
506.806	6279.34264
507.014	6114.63635
507.222	6160.46001
507.431	6099.93257
507.639	6160.58445
507.847	6140.23077
508.055	6370.28627
508.264	6208.4274
508.472	6260.27375
508.68	6145.89664
508.888	6174.93124
509.096	6222.11316
509.305	6171.03728
509.513	6181.09608
509.721	6167.03492
509.929	6186.2154
510.137	6171.27246
510.345	6119.53718
510.553	6251.99329
510.762	6084.69075
510.97	6172.79864
511.178	6135.56826
511.386	6383.32904
511.594	6167.6268
511.802	6381.44371
512.01	6295.02689
512.218	6287.13405
512.426	6282.99424
512.634	6299.41767
512.842	6308.70087
513.049	6248.39733
513.257	6210.30556
513.465	6348.47189
513.673	6186.87471
513.881	6266.04193
514.089	6361.92406
514.297	6263.52761
514.504	6132.67804
514.712	6293.77797
514.92	6262.03224
515.128	6330.53236
515.336	6261.02837
515.543	6308.33259
515.751	6194.16766
515.959	6276.7339
516.166	6124.03825
516.374	6210.82638
516.582	6168.51925
516.789	6067.9541
516.997	6052.65911
517.205	6063.81115
517.412	6091.24312
517.62	6202.40128
517.827	6049.25093
518.035	5975.94238
518.243	6071.17174
518.45	5952.25964
518.658	5864.70029
518.865	5971.46327
519.073	5962.47048
519.28	5937.31928
519.488	5894.69147
519.695	5875.22356
519.902	5831.99439
520.11	5919.19763
520.317	5954.46657
520.525	5885.65783
520.732	5709.39615
520.939	5798.63818
521.147	5704.64105
521.354	5698.59239
521.561	5797.06942
521.769	5768.42106
521.976	5604.61444
522.183	5712.46474
522.391	5695.2074
522.598	5741.29421
522.805	5613.36998
523.012	5681.64758
523.219	5577.43489
523.427	5715.70306
523.634	5534.628
523.841	5731.49296
524.048	5545.73206
524.255	5607.36386
524.462	5538.37393
524.669	5452.41371
524.877	5554.89854
525.084	5651.92046
525.291	5573.51397
525.498	5718.26617
525.705	5543.18008
525.912	5643.30271
526.119	5683.42339
526.326	5587.04921
526.533	5592.8771
526.74	5618.39274
526.947	5522.22428
527.153	5653.16931
527.36	5639.04808
527.567	5603.0735
527.774	5510.87621
527.981	5475.28158
528.188	5468.27445
528.395	5633.81477
528.602	5415.147
528.808	5599.87329
529.015	5485.2777
529.222	5585.62723
529.429	5328.06719
529.635	5665.0314
529.842	5539.37701
530.049	5595.18666
530.256	5569.85194
530.462	5581.43534
530.669	5438.78513
530.876	5428.74083
531.082	5478.03008
531.289	5374.86808
531.495	5418.22757
531.702	5568.00446
531.909	5434.21293
532.115	5374.1032
532.322	5426.78439
532.528	5401.07056
532.735	5385.88255
532.941	5519.60746
533.148	5425.84081
533.354	5482.89532
533.561	5410.36097
533.767	5402.55008
533.974	5322.13496
534.18	5422.08557
534.387	5226.76642
534.593	5297.46746
534.799	5241.76851
535.006	5283.53449
535.212	5234.62434
535.418	5326.10392
535.625	5269.84434
535.831	5295.17673
536.037	5238.70097
536.244	5262.18
536.45	5037.75468
536.656	5264.22693
536.862	5310.66318
537.068	5239.61778
537.275	5079.33239
537.481	5265.7949
537.687	5156.58711
537.893	5298.76763
538.099	5022.98504
538.305	5089.24182
538.512	5086.9612
538.718	5191.25801
538.924	5040.79756
539.13	4936.51344
539.336	5016.37388
539.542	5105.24932
539.748	4961.76457
539.954	4935.59331
540.16	5005.97327
540.366	5023.6671
540.572	4885.48244
540.778	4970.45165
540.984	4790.19698
541.19	5100.76991
541.396	4812.75572
541.602	4989.3907
541.807	4829.90292
542.013	4890.0031
542.219	4824.02892
542.425	4869.45456
542.631	4815.24847
542.837	4815.13704
543.042	4643.03854
543.248	4703.86776
543.454	4691.37183
543.66	4831.83208
543.865	4590.26838
544.071	4683.25596
544.277	4595.65428
544.483	4711.45906
544.688	4582.43958
544.894	4581.34413
545.1	4620.88474
545.305	4524.43675
545.511	4624.99363
545.716	4595.50969
545.922	4540.61808
546.128	4549.07324
546.333	4518.12331
546.539	4552.67772
546.744	4398.98874
546.95	4504.27701
547.155	4456.79274
547.361	4413.46069
547.566	4278.14956
547.772	4482.74355
547.977	4365.1792
548.182	4390.87506
548.388	4355.87422
548.593	4438.1989
548.799	4265.57907
549.004	4368.67939
549.209	4251.42775
549.415	4352.4337
549.62	4299.27037
549.825	4351.22263
550.031	4123.28478
550.236	4165.5084
550.441	4238.54684
550.646	4249.9106
550.852	4259.5671
551.057	4149.74238
551.262	4071.8874
551.467	4193.67482
551.672	4068.29546
551.878	4179.20513
552.083	4166.46812
552.288	4128.72615
552.493	4000.43226
552.698	4122.77379
552.903	3967.00029
553.108	4080.71415
553.313	3938.36341
553.518	4051.86733
553.723	3988.49336
553.928	4036.37596
554.133	3962.81749
554.338	4044.08057
554.543	3955.42113
554.748	3938.2994
554.953	3823.82235
555.158	3938.42372
555.363	3873.93536
555.568	3838.77507
555.773	3804.34991
555.978	3904.07327
556.182	3850.43732
556.387	3811.31925
556.592	3811.80644
556.797	3912.18186
557.002	3659.71356
557.206	3862.78761
557.411	3718.28023
557.616	3749.35917
557.821	3697.60604
558.025	3687.13345
558.23	3659.02793
558.435	3731.84642
558.64	3644.16893
558.844	3719.37065
559.049	3604.48892
559.253	3672.41224
559.458	3557.85422
559.663	3675.76828
559.867	3543.84747
560.072	3621.02454
560.276	3483.45877
560.481	3541.121
560.685	3385.77937
560.89	3431.0329
561.094	3366.22569
561.299	3466.12262
561.503	3320.67306
561.708	3353.60025
561.912	3319.06036
562.117	3385.56034
562.321	3271.05078
562.525	3272.30473
562.73	3276.05133
562.934	3389.65543
563.139	3273.52346
563.343	3342.55204
563.547	3265.20949
563.752	3289.7479
563.956	3105.36637
564.16	3164.04396
564.364	3170.32351
564.569	3186.83941
564.773	3068.91108
564.977	3115.70028
565.181	3129.67528
565.385	3166.55299
565.59	3026.53707
565.794	3095.64919
565.998	3161.8869
566.202	3018.18701
566.406	2949.50309
566.61	3057.40971
566.814	3010.90605
567.018	3057.05287
567.222	2970.6896
567.426	2988.14241
567.63	2919.18144
567.834	2956.66347
568.038	2932.81671
568.242	2911.16641
568.446	2848.88757
568.65	2940.68229
568.854	2771.6249
569.058	2888.10154
569.262	2897.43416
569.466	2874.24617
