Data from 3_57 pm cloudy_Subt2__0__15-59-37-571.txt Node

Date: Tue Oct 07 15:59:37 EDT 2025
User: brett
Spectrometer: USB4F03499
Trigger mode: 4
Integration Time (sec): 1.000000E-2
Scans to average: 1
Electric dark correction enabled: true
Nonlinearity correction enabled: true
Boxcar width: 0
XAxis mode: Wavelengths
Number of Pixels in Spectrum: 3648
>>>>>Begin Spectral Data<<<<<
345.386	-14.20015
345.605	-14.20015
345.824	-14.20015
346.044	-6.25191
346.263	-26.18447
346.482	-17.55386
346.701	-13.29804
346.92	6.28768
347.139	-14.08822
347.358	12.21226
347.577	-14.09093
347.796	-2.89139
348.015	10.98317
348.234	-22.37175
348.453	39.96383
348.672	11.7647
348.891	3.04035
349.11	-18.22312
349.329	120.98639
349.548	195.54776
349.767	177.49727
349.986	206.28537
350.205	217.76082
350.424	199.4874
350.643	206.49372
350.862	190.80061
351.08	188.37222
351.299	189.40758
351.518	199.10664
351.737	217.14388
351.956	231.49848
352.174	246.78471
352.393	232.00684
352.612	220.63047
352.831	247.96024
353.049	220.39829
353.268	210.47632
353.487	209.54154
353.705	259.98015
353.924	215.03345
354.143	193.1687
354.361	271.07288
354.58	204.52163
354.798	267.20585
355.017	237.18748
355.236	259.42056
355.454	240.06109
355.673	239.3495
355.891	261.53729
356.11	250.99115
356.328	276.96382
356.547	252.65108
356.765	255.19664
356.984	250.95362
357.202	271.70352
357.42	272.477
357.639	260.46194
357.857	256.15602
358.076	264.6218
358.294	228.8733
358.512	275.57056
358.731	275.72239
358.949	237.80932
359.167	263.36746
359.386	280.9305
359.604	246.09476
359.822	234.36383
360.04	303.86918
360.259	257.18584
360.477	260.55923
360.695	257.43499
360.913	273.99315
361.131	265.29634
361.35	303.14099
361.568	266.43234
361.786	271.82589
362.004	271.77522
362.222	291.39798
362.44	293.40459
362.658	291.24264
362.876	235.98311
363.094	273.34169
363.312	281.10196
363.53	243.69004
363.749	311.23201
363.967	274.00285
364.184	279.10873
364.402	293.80587
364.62	304.3823
364.838	251.31751
365.056	303.50968
365.274	297.58827
365.492	298.81013
365.71	300.33167
365.928	282.29078
366.146	269.96497
366.364	318.68414
366.581	342.00746
366.799	312.87614
367.017	297.56837
367.235	344.29641
367.453	303.56612
367.67	333.55342
367.888	283.44126
368.106	358.82854
368.323	382.66101
368.541	328.95302
368.759	344.17174
368.977	348.13649
369.194	347.96023
369.412	375.4148
369.629	345.57549
369.847	337.70642
370.065	379.10881
370.282	385.19354
370.5	397.48164
370.717	370.58841
370.935	368.09616
371.152	377.68178
371.37	402.25545
371.588	368.67239
371.805	441.40092
372.022	354.14085
372.24	364.93145
372.457	478.24285
372.675	408.32197
372.892	402.09269
373.11	448.94188
373.327	405.71052
373.544	441.20671
373.762	431.79078
373.979	429.69757
374.196	448.87928
374.414	462.29889
374.631	475.72084
374.848	480.12809
375.066	460.60352
375.283	428.89684
375.5	410.50017
375.717	491.77925
375.935	454.21835
376.152	449.45875
376.369	449.93254
376.586	486.84976
376.803	462.3939
377.02	432.30378
377.238	480.13483
377.455	479.35535
377.672	436.39555
377.889	499.95582
378.106	480.71189
378.323	476.44468
378.54	468.11073
378.757	480.89403
378.974	486.80187
379.191	489.20516
379.408	457.83376
379.625	470.92554
379.842	457.48733
380.059	524.57671
380.276	512.67805
380.493	487.1092
380.71	476.58894
380.927	466.6977
381.143	526.41662
381.36	501.94967
381.577	521.76176
381.794	450.17282
382.011	514.0956
382.228	510.81269
382.444	552.68821
382.661	488.49808
382.878	518.29098
383.095	474.7135
383.311	504.62296
383.528	542.49024
383.745	503.23981
383.962	517.11745
384.178	529.83038
384.395	560.58604
384.612	551.73272
384.828	519.31566
385.045	548.42763
385.261	569.02955
385.478	565.31759
385.695	550.15824
385.911	562.51937
386.128	557.98066
386.344	574.26884
386.561	563.65904
386.777	536.3597
386.994	556.66866
387.21	549.36772
387.427	572.64391
387.643	576.75974
387.86	553.20777
388.076	513.10702
388.292	579.08188
388.509	505.44107
388.725	534.8659
388.942	497.149
389.158	602.12277
389.374	538.69064
389.591	549.48985
389.807	595.65388
390.023	553.2479
390.239	556.12922
390.456	565.55251
390.672	587.4999
390.888	576.92667
391.104	563.44493
391.321	572.89678
391.537	607.83338
391.753	601.96405
391.969	577.66264
392.185	639.86231
392.401	617.75172
392.618	626.41339
392.834	655.80644
393.05	632.59389
393.266	628.96422
393.482	647.19902
393.698	642.62745
393.914	640.6427
394.13	702.88236
394.346	661.45645
394.562	669.79801
394.778	639.87956
394.994	713.92772
395.21	683.95355
395.426	701.71331
395.642	731.33255
395.858	749.6356
396.073	728.78426
396.289	721.4362
396.505	783.51496
396.721	750.15302
396.937	799.94002
397.153	745.48287
397.369	764.87751
397.584	759.41776
397.8	822.31066
398.016	793.03016
398.232	802.09345
398.447	768.9362
398.663	789.6446
398.879	811.09974
399.094	837.87049
399.31	813.02567
399.526	778.17171
399.741	830.63697
399.957	859.83517
400.173	847.07007
400.388	915.10792
400.604	912.03791
400.82	899.21097
401.035	886.12423
401.251	955.57135
401.466	900.43866
401.682	976.11201
401.897	1012.82646
402.113	965.24406
402.328	1021.78357
402.544	1029.56416
402.759	1040.7333
402.974	1129.39614
403.19	1076.44535
403.405	1084.42666
403.621	1180.84802
403.836	1128.23506
404.051	1245.61543
404.267	1261.29474
404.482	1232.53728
404.697	1305.65889
404.913	1270.52632
405.128	1418.1546
405.343	1395.9377
405.559	1341.65108
405.774	1370.90095
405.989	1450.77523
406.204	1520.56382
406.42	1546.26302
406.635	1521.04877
406.85	1492.67633
407.065	1565.29404
407.28	1547.66099
407.495	1654.6122
407.71	1549.46244
407.926	1721.23631
408.141	1797.89779
408.356	1840.16565
408.571	1735.35393
408.786	1775.19175
409.001	1789.06101
409.216	1780.27603
409.431	1845.39477
409.646	1815.48857
409.861	1862.96989
410.076	1918.85521
410.291	1824.30185
410.506	1925.7513
410.721	1890.06238
410.936	1853.47763
411.15	1910.67373
411.365	2006.28137
411.58	2014.5233
411.795	1948.88779
412.01	2057.84778
412.225	2039.62883
412.439	1966.83333
412.654	2048.75766
412.869	2019.73372
413.084	2036.65612
413.299	2044.06217
413.513	1983.82253
413.728	2100.0884
413.943	2072.96189
414.157	2165.56815
414.372	2180.39621
414.587	2232.17046
414.801	2300.1502
415.016	2177.52805
415.231	2296.26014
415.445	2291.95072
415.66	2295.52927
415.874	2358.80906
416.089	2343.1054
416.304	2407.59925
416.518	2421.99769
416.733	2370.82008
416.947	2438.72755
417.162	2500.57065
417.376	2429.04767
417.59	2470.93936
417.805	2528.45932
418.019	2471.88748
418.234	2468.49606
418.448	2403.92843
418.663	2524.05835
418.877	2542.82521
419.091	2466.71655
419.306	2549.46524
419.52	2589.58282
419.734	2467.82466
419.949	2633.02045
420.163	2639.22358
420.377	2559.75816
420.591	2611.09733
420.806	2675.90479
421.02	2653.31596
421.234	2732.26409
421.448	2675.41445
421.663	2726.38968
421.877	2634.57535
422.091	2702.35231
422.305	2644.16485
422.519	2670.36774
422.733	2754.65782
422.947	2698.14751
423.161	2685.39194
423.376	2640.90738
423.59	2761.90474
423.804	2768.46053
424.018	2798.68777
424.232	2771.46817
424.446	2990.44114
424.66	2825.84639
424.874	2848.53836
425.088	2755.0522
425.302	2716.04969
425.515	2892.85263
425.729	2942.43719
425.943	2935.29715
426.157	2889.49807
426.371	2812.14858
426.585	2837.5578
426.799	2903.21246
427.013	3051.93543
427.226	3084.42418
427.44	2891.55597
427.654	2892.58941
427.868	2941.63935
428.081	2866.55454
428.295	2929.92477
428.509	2964.79136
428.723	2965.95665
428.936	2918.16114
429.15	2804.36402
429.364	2967.93449
429.577	2760.44367
429.791	2829.03988
430.005	3046.45005
430.218	3049.85919
430.432	2861.35628
430.645	2956.81513
430.859	2895.88683
431.073	2964.1297
431.286	2971.90903
431.5	3031.73951
431.713	2912.0736
431.927	2794.17976
432.14	2907.61936
432.354	2880.60648
432.567	2905.36532
432.781	2963.5954
432.994	2994.6944
433.207	3029.16511
433.421	3041.07538
433.634	2998.36482
433.848	3074.86484
434.061	2998.7523
434.274	2907.96311
434.488	2992.2631
434.701	2879.77267
434.914	2956.8367
435.127	3018.42251
435.341	2982.88634
435.554	3099.61858
435.767	3198.12428
435.98	3158.82829
436.194	2977.77143
436.407	2937.65843
436.62	3331.84682
436.833	3222.12516
437.046	3182.86583
437.259	3117.36345
437.473	3140.44124
437.686	3324.08294
437.899	3164.62211
438.112	3289.7588
438.325	3282.77076
438.538	3220.37409
438.751	3512.67423
438.964	3331.01807
439.177	3281.70431
439.39	3331.35488
439.603	3593.04503
439.816	3394.85912
440.029	3627.38153
440.242	3654.75939
440.455	3768.83709
440.668	3723.44379
440.881	3488.33242
441.094	3522.88109
441.306	3732.60063
441.519	3914.55281
441.732	3861.33514
441.945	3953.80065
442.158	3759.21885
442.37	3734.82347
442.583	3945.59497
442.796	4033.27057
443.009	4026.1334
443.222	3888.32265
443.434	3731.09895
443.647	4150.03528
443.86	4208.95297
444.072	4314.20679
444.285	4133.08546
444.498	4239.07807
444.71	4092.39671
444.923	4167.37326
445.136	4215.35817
445.348	4082.93574
445.561	4178.11529
445.773	4147.04334
445.986	3947.21203
446.198	4315.61098
446.411	4371.89365
446.623	4391.1602
446.836	4326.91088
447.048	4381.22798
447.261	4461.68199
447.473	4530.04338
447.686	4351.9998
447.898	4430.61218
448.11	4635.50747
448.323	4779.46536
448.535	4606.9316
448.748	4390.66131
448.96	4493.17536
449.172	4482.24863
449.385	4339.01989
449.597	4596.33718
449.809	4650.21575
450.021	4796.57592
450.234	4714.05039
450.446	4521.92713
450.658	4588.79294
450.87	4557.78994
451.083	4734.27791
451.295	4687.6762
451.507	4718.54353
451.719	4728.61898
451.931	4822.90905
452.143	4865.92606
452.356	4804.65649
452.568	4935.78147
452.78	4857.19172
452.992	4988.47353
453.204	5122.03965
453.416	4812.49907
453.628	4733.1237
453.84	4860.99978
454.052	4944.95871
454.264	5027.83083
454.476	5104.27212
454.688	5302.34546
454.9	5259.88258
455.112	4994.62215
455.324	4952.67674
455.536	5094.22493
455.747	5134.89201
455.959	5192.35949
456.171	5297.45133
456.383	5071.56773
456.595	4899.07154
456.807	5022.24055
457.018	4821.79579
457.23	5138.10896
457.442	5149.93797
457.654	5249.07354
457.865	5181.66377
458.077	5008.3775
458.289	5003.79993
458.501	5091.7408
458.712	5302.80425
458.924	5623.46498
459.136	5172.03771
459.347	5197.28048
459.559	5256.06126
459.77	5443.07295
459.982	5547.39067
460.194	5459.68594
460.405	5321.05717
460.617	5192.27765
460.828	5520.30814
461.04	5431.93743
461.251	5290.53877
461.463	5805.31618
461.674	5773.1686
461.886	5607.68536
462.097	5408.43213
462.309	5547.11267
462.52	5391.40835
462.731	5750.28496
462.943	5539.58342
463.154	5269.70037
463.366	5423.60349
463.577	5678.88058
463.788	5897.94479
464	5798.58119
464.211	5999.34297
464.422	6289.51875
464.634	6049.83274
464.845	6105.4281
465.056	6147.86668
465.267	6060.77051
465.478	5747.11129
465.69	6092.50927
465.901	6016.25553
466.112	6119.09958
466.323	6189.38185
466.534	6355.41816
466.745	6373.19126
466.957	6444.22357
467.168	6244.53318
467.379	6357.12321
467.59	6068.82815
467.801	5954.35972
468.012	6276.63009
468.223	6351.94861
468.434	6184.47391
468.645	6603.04605
468.856	6723.81744
469.067	6576.10808
469.278	6635.46397
469.489	6708.64343
469.7	6391.42202
469.911	6440.28401
470.122	6843.8904
470.333	7024.05211
470.543	6695.26216
470.754	6834.68456
470.965	6855.74165
471.176	6920.77902
471.387	7236.42111
471.598	7007.61742
471.808	6919.05088
472.019	7086.11934
472.23	7060.33857
472.441	6971.33754
472.651	7164.00839
472.862	6946.90014
473.073	7343.07448
473.283	7136.05236
473.494	7011.77442
473.705	7073.0661
473.915	7166.19168
474.126	7410.95812
474.337	7356.76999
474.547	7687.82116
474.758	7662.66028
474.968	7637.33514
475.179	7730.57578
475.389	7497.60639
475.6	7695.31247
475.81	7790.95098
476.021	7983.69506
476.231	8116.43616
476.442	8007.90923
476.652	7683.7705
476.863	8003.39333
477.073	7904.26564
477.284	8117.67733
477.494	7937.80767
477.704	8576.31877
477.915	8742.78373
478.125	8282.95349
478.335	8553.93167
478.546	8769.61393
478.756	8626.15811
478.966	8819.81773
479.177	8731.11507
479.387	8955.71121
479.597	8985.90865
479.807	8972.03129
480.018	8932.38754
480.228	9203.98145
480.438	9247.08712
480.648	9339.63464
480.858	9327.08434
481.068	9172.8981
481.279	9368.96221
481.489	9872.75869
481.699	9691.70071
481.909	9683.02211
482.119	10298.92732
482.329	10086.28848
482.539	10290.18677
482.749	9891.19696
482.959	10161.94389
483.169	10586.40573
483.379	10565.0323
483.589	10648.00943
483.799	10621.4228
484.009	10411.015
484.219	10675.90677
484.429	10750.30543
484.639	10622.45363
484.849	10916.23186
485.059	11173.82168
485.268	11176.55894
485.478	11356.4216
485.688	11085.61371
485.898	11171.78308
486.108	11311.77626
486.317	11448.73673
486.527	11395.53886
486.737	11820.17179
486.947	11716.27867
487.156	11996.47982
487.366	11879.84675
487.576	11544.57158
487.785	11655.03782
487.995	11654.76739
488.205	11827.69257
488.414	11848.92272
488.624	12054.84318
488.834	12064.4487
489.043	11996.8621
489.253	11832.16858
489.462	12117.62282
489.672	12201.78168
489.882	12335.93618
490.091	12425.82266
490.301	12225.5121
490.51	12566.67313
490.72	12477.20311
490.929	12651.90963
491.138	12814.19966
491.348	12660.92742
491.557	12684.17342
491.767	12811.53828
491.976	12801.40202
492.185	12692.20396
492.395	12833.04255
492.604	12923.76596
492.813	12955.52381
493.023	13200.14993
493.232	13158.42339
493.441	13017.94483
493.651	13272.05829
493.86	13056.26359
494.069	13492.24781
494.278	13365.23868
494.488	13310.05098
494.697	13467.14092
494.906	13366.1576
495.115	13642.76201
495.324	13524.51189
495.533	13689.5491
495.743	13812.65617
495.952	14064.24703
496.161	13946.40548
496.37	14108.54013
496.579	13996.60826
496.788	14361.94206
496.997	14310.97194
497.206	14162.00265
497.415	14232.70181
497.624	14387.98479
497.833	14442.29744
498.042	14612.70541
498.251	14876.05243
498.46	14935.45177
498.669	14779.07787
498.878	14832.95645
499.087	14880.01031
499.296	15158.72873
499.504	15158.70142
499.713	15004.84728
499.922	15185.68028
500.131	15156.80629
500.34	15120.88798
500.549	15395.55407
500.757	15118.19317
500.966	15322.88924
501.175	15398.44653
501.384	15627.73984
501.592	15392.39016
501.801	15555.3622
502.01	15521.44521
502.218	15430.15745
502.427	15629.45002
502.636	15596.39899
502.844	15680.99466
503.053	15434.4236
503.262	15674.20037
503.47	15586.52153
503.679	15725.13298
503.887	15607.06956
504.096	15884.38187
504.304	15839.14401
504.513	15761.66295
504.721	15596.10799
504.93	15706.78679
505.138	16067.61402
505.347	15874.92952
505.555	15703.72127
505.764	15874.30088
505.972	15981.91625
506.18	15772.36445
506.389	15743.56761
506.597	15845.83641
506.806	15958.4042
507.014	16090.40033
507.222	15823.38284
507.431	15755.54014
507.639	15765.69661
507.847	15994.92958
508.055	16003.24359
508.264	16005.65022
508.472	16054.26099
508.68	16023.41986
508.888	16224.34152
509.096	16148.37946
509.305	16116.62139
509.513	16095.15646
509.721	16181.59481
509.929	16200.09603
510.137	16140.77043
510.345	16184.52275
510.553	16147.33493
510.762	16287.83193
510.97	16265.3746
511.178	16337.50453
511.386	16496.93141
511.594	16540.01105
511.802	16547.13862
512.01	16480.53261
512.218	16399.69725
512.426	16589.95835
512.634	16669.41355
512.842	16587.51681
513.049	16884.35095
513.257	16629.16178
513.465	16676.44856
513.673	16840.72868
513.881	16830.69127
514.089	16876.87105
514.297	16962.07992
514.504	16943.82439
514.712	17032.35287
514.92	17029.81793
515.128	17180.67343
515.336	16978.56314
515.543	17111.91954
515.751	17294.09361
515.959	17115.43009
516.166	16869.5166
516.374	16846.86944
516.582	17283.10552
516.789	17245.81429
516.997	17198.39855
517.205	17201.91996
517.412	17094.37834
517.62	17219.98894
517.827	17209.33013
518.035	17132.66856
518.243	17259.2064
518.45	16975.17843
518.658	16950.39121
518.865	16915.78359
519.073	17047.06955
519.28	16892.13966
519.488	16989.85303
519.695	16833.35063
519.902	17020.38953
520.11	16996.7745
520.317	17036.76175
520.525	17101.1477
520.732	16668.20456
520.939	16941.93139
521.147	16778.75776
521.354	17018.84058
521.561	16884.38511
521.769	16945.91493
521.976	16910.09961
522.183	16888.90373
522.391	16867.33218
522.598	16927.57614
522.805	16843.20168
523.012	16946.99841
523.219	16945.6734
523.427	17123.38231
523.634	17037.57322
523.841	17056.14293
524.048	16786.86551
524.255	17206.09661
524.462	17219.36946
524.669	16950.48125
524.877	17204.73168
525.084	17102.48941
525.291	17125.53586
525.498	17230.02407
525.705	17321.63391
525.912	17275.85964
526.119	17191.454
526.326	17351.11975
526.533	17365.3547
526.74	17481.65068
526.947	17460.98078
527.153	17807.9205
527.36	17457.90759
527.567	17452.85639
527.774	17474.31389
527.981	17305.55722
528.188	17535.71632
528.395	17616.55789
528.602	17707.76671
528.808	17427.54465
529.015	17676.17238
529.222	17785.87611
529.429	17640.18984
529.635	17618.40059
529.842	17844.9461
530.049	17800.79897
530.256	17586.14318
530.462	18032.00067
530.669	17860.2478
530.876	17803.90642
531.082	17716.39307
531.289	17851.25745
531.495	18044.51395
531.702	17880.44034
531.909	17948.81188
532.115	18361.92776
532.322	17985.46935
532.528	18029.69001
532.735	17989.26667
532.941	18074.07535
533.148	18055.08996
533.354	17953.28772
533.561	18208.57914
533.767	17977.62278
533.974	18045.50442
534.18	18184.40642
534.387	18001.81365
534.593	18175.64164
534.799	18119.6508
535.006	18175.76479
535.212	18053.30363
535.418	18177.88054
535.625	18253.79668
535.831	18078.19424
536.037	18326.6516
536.244	18124.82143
536.45	17958.41887
536.656	18127.00343
536.862	18235.74456
537.068	18118.48622
537.275	18199.97552
537.481	18312.75828
537.687	18446.9964
537.893	18402.0714
538.099	18385.70656
538.305	18345.52089
538.512	18445.38067
538.718	18526.47403
538.924	18446.03581
539.13	18299.96426
539.336	18365.20751
539.542	18412.55419
539.748	18411.53194
539.954	18309.80504
540.16	18553.75832
540.366	18343.00938
540.572	18525.46682
540.778	18384.20669
540.984	18363.62205
541.19	18470.09228
541.396	18485.04763
541.602	18397.63012
541.807	18160.93498
542.013	18422.32498
542.219	18217.36562
542.425	18363.46636
542.631	18405.46099
542.837	18394.62507
543.042	18355.66881
543.248	18098.08303
543.454	18193.91085
543.66	18236.34983
543.865	18150.4242
544.071	18216.2843
544.277	18085.5421
544.483	18171.61204
544.688	18116.66267
544.894	18277.86236
545.1	18315.28524
545.305	18121.56973
545.511	18120.93159
545.716	18116.64681
545.922	18076.12784
546.128	18159.04274
546.333	18079.4872
546.539	18105.61487
546.744	18008.65045
546.95	18063.67266
547.155	18000.8389
547.361	18067.15371
547.566	18088.90884
547.772	18166.31254
547.977	18081.48481
548.182	17937.6459
548.388	18095.26926
548.593	17984.18581
548.799	18017.34498
549.004	17970.08676
549.209	18069.63224
549.415	18176.69364
549.62	18145.00366
549.825	18195.75066
550.031	17992.46801
550.236	18150.70699
550.441	18290.46004
550.646	18148.04107
550.852	17997.78884
551.057	17906.75293
551.262	18019.62816
551.467	18074.95391
551.672	18089.54291
551.878	18303.96634
552.083	18011.02946
552.288	18015.90335
552.493	18258.67089
552.698	18055.71066
552.903	18189.31399
553.108	18350.24765
553.313	18282.86539
553.518	18096.52103
553.723	18273.68948
553.928	18316.57088
554.133	18193.40069
554.338	18331.6616
554.543	18375.04772
554.748	18225.27517
554.953	18207.58852
555.158	18454.33086
555.363	18321.62803
555.568	18179.08901
555.773	18464.61693
555.978	18388.68031
556.182	18248.58987
556.387	18403.54227
556.592	18327.20688
556.797	18569.89838
557.002	18421.49168
557.206	18338.24993
557.411	18450.97382
557.616	18248.24194
557.821	18450.97313
558.025	18450.80185
558.23	18342.19635
558.435	18566.9438
558.64	18329.96885
558.844	18392.78806
559.049	18433.01282
559.253	18341.55792
559.458	18268.9506
559.663	18322.7009
559.867	18273.04927
560.072	18310.48854
560.276	18259.05603
560.481	18310.16203
560.685	18178.07764
560.89	18226.94073
561.094	18377.20485
561.299	18162.30731
561.503	18103.81891
561.708	18417.85826
561.912	18137.45174
562.117	18321.43697
562.321	18167.18117
562.525	18307.79462
562.73	18269.50297
562.934	18118.45793
563.139	18089.82324
563.343	18199.94182
563.547	17955.52073
563.752	18133.65999
563.956	18152.9649
564.16	18065.60375
564.364	17989.19913
564.569	18093.18602
564.773	18129.58934
