Data from 4_51 _Subt2__0__16-51-23-322.txt Node

Date: Tue Oct 07 16:51:23 EDT 2025
User: brett
Spectrometer: USB4F03499
Trigger mode: 4
Integration Time (sec): 2.970000E-3
Scans to average: 5
Electric dark correction enabled: true
Nonlinearity correction enabled: true
Boxcar width: 0
XAxis mode: Wavelengths
Number of Pixels in Spectrum: 3648
>>>>>Begin Spectral Data<<<<<
345.386	25.66453
345.605	25.66453
345.824	25.66453
346.044	11.48207
346.263	-31.52464
346.482	5.6218
346.701	-73.95817
346.92	23.24861
347.139	-17.83386
347.358	-30.55685
347.577	29.119
347.796	75.65956
348.015	-2.6893
348.234	-7.0905
348.453	-20.7717
348.672	-33.00002
348.891	52.56664
349.11	66.30974
349.329	-11.49043
349.548	12.47999
349.767	5.13256
349.986	8.06168
350.205	-45.69433
350.424	-39.85584
350.643	-39.3434
350.862	-9.5319
351.08	-10.50181
351.299	6.1055
351.518	8.06168
351.737	-82.28244
351.956	-59.84144
352.174	-40.80723
352.393	-64.24815
352.612	-73.0292
352.831	-70.08891
353.049	-71.47285
353.268	-49.09357
353.487	-55.91572
353.705	4.64301
353.924	-145.70462
354.143	-21.74592
354.361	-86.74173
354.58	42.31236
354.798	16.87347
355.017	-12.94679
355.236	43.28632
355.454	-44.23079
355.673	83.4413
355.891	-15.89223
356.11	40.82876
356.328	-85.28065
356.547	-24.67301
356.765	-12.46021
356.984	-16.86625
357.202	11.48976
357.42	66.72004
357.639	89.28996
357.857	9.04627
358.076	-56.36706
358.294	-52.50734
358.512	-41.70898
358.731	43.30453
358.949	-45.65244
359.167	-0.24435
359.386	41.33126
359.604	-55.4639
359.822	-27.60353
360.04	47.1723
360.259	21.76067
360.477	59.93931
360.695	14.41656
360.913	22.75936
361.131	-67.59899
361.35	-38.81548
361.568	4.64729
361.786	-16.8606
362.004	-58.88311
362.222	25.65594
362.44	52.63309
362.658	-12.95654
362.876	-10.01828
363.094	-58.95227
363.312	4.15188
363.53	-58.89295
363.749	-43.72342
363.967	-5.62383
364.184	-39.83914
364.402	38.43081
364.62	-54.472
364.838	-28.59307
365.056	11.97057
365.274	26.64848
365.492	-25.68069
365.71	38.91019
365.928	-4.15664
366.146	12.94971
366.364	-9.52712
366.581	-38.87061
366.799	-13.92181
367.017	11.48207
367.235	-36.41219
367.453	2.20181
367.67	32.9601
367.888	-14.43338
368.106	-102.27915
368.323	-21.73866
368.541	-91.59038
368.759	99.11699
368.977	14.91137
369.194	-99.90879
369.412	37.40818
369.629	-2.20087
369.847	-46.66083
370.065	-12.95545
370.282	-87.61834
370.5	78.5143
370.717	6.11214
370.935	4.15849
371.152	-97.42947
371.37	-43.2707
371.588	-55.94369
371.805	119.76389
372.022	3.66254
372.24	7.57886
372.457	43.77138
372.675	-19.78891
372.892	-15.87364
373.11	51.12672
373.327	-4.64297
373.544	-6.59812
373.762	-1.22268
373.979	39.87494
374.196	-40.29799
374.414	19.31322
374.631	24.67486
374.848	-35.93216
375.066	-13.43658
375.283	-36.41828
375.5	-25.65916
375.717	-9.04301
375.935	-76.89105
376.152	-12.46333
376.369	-41.84151
376.586	-65.27554
376.803	1.22079
377.02	-31.50885
377.238	-38.83811
377.455	55.05558
377.672	36.90403
377.889	30.08208
378.106	-116.34946
378.323	-66.24345
378.54	-13.43434
378.757	-39.32369
378.974	6.10397
379.191	-65.1667
379.408	-2.19701
379.625	-72.02103
379.842	-16.8606
380.059	-11.49623
380.276	-77.41853
380.493	-41.76094
380.71	-61.26259
380.927	-23.21252
381.143	-61.76151
381.36	11.49072
381.577	-22.2255
381.794	45.24504
382.011	-39.83247
382.228	-9.5367
382.444	-36.87661
382.661	42.76528
382.878	20.76736
383.095	30.56326
383.311	-32.98071
383.528	3.17581
383.745	-13.43322
383.962	112.80504
384.178	41.31392
384.395	-104.18358
384.612	8.55162
384.828	-49.57421
385.045	12.45906
385.261	56.47479
385.478	27.12812
385.695	22.23273
385.911	-60.7992
386.128	-34.92463
386.344	-13.92414
386.561	64.40338
386.777	-35.89019
386.994	34.01295
387.21	3.66498
387.427	-34.93337
387.643	-20.74575
387.86	48.18553
388.076	100.59134
388.292	65.3376
388.509	-28.56209
388.725	-8.06323
388.942	-55.43614
389.158	-41.29283
389.374	-65.13969
389.591	-6.59923
389.807	46.67214
390.023	27.10774
390.239	-13.91949
390.456	51.55497
390.672	-46.61038
390.888	14.43715
391.104	17.34787
391.321	65.32659
391.537	11.00277
391.753	23.6921
391.969	-4.64219
392.185	-13.4694
392.401	19.28263
392.618	30.59157
392.834	44.20826
393.05	58.43848
393.266	38.38231
393.482	-4.1549
393.698	-91.06321
393.914	5.62133
394.13	-104.27883
394.346	-75.91339
394.562	-19.29692
394.778	58.4483
394.994	-9.52792
395.21	-84.70646
395.426	15.88358
395.642	-6.10983
395.858	22.73639
396.073	-50.59413
396.289	-34.37883
396.505	-31.02526
396.721	10.50681
396.937	-1.71077
397.153	8.06101
397.369	-18.82554
397.584	-20.26756
397.8	15.87298
398.016	-33.91613
398.232	-17.83833
398.447	10.00819
398.663	72.15061
398.879	16.37902
399.094	-24.18423
399.31	43.2176
399.526	-31.9843
399.741	-24.17617
399.957	15.39756
400.173	-30.03006
400.388	18.79774
400.604	-15.87496
400.82	80.93643
401.035	83.84538
401.251	65.7656
401.466	30.09728
401.682	47.61301
401.897	61.81144
402.113	31.53811
402.328	-2.20013
402.544	36.9164
402.759	79.91948
402.974	10.99816
403.19	24.66047
403.405	-92.96538
403.621	90.19877
403.836	42.75813
404.051	-10.00993
404.267	-3.66422
404.482	84.2842
404.697	6.1055
404.913	5.61617
405.128	-16.83676
405.343	113.16978
405.559	41.75364
405.774	-8.04916
405.989	5.62227
406.204	-49.52073
406.42	2.68523
406.635	56.8872
406.85	87.26985
407.065	-44.66404
407.28	61.25699
407.495	40.73704
407.71	21.21526
407.926	80.25387
408.141	78.75967
408.356	16.3234
408.571	25.61119
408.786	65.67776
409.001	82.74463
409.216	-4.14047
409.431	159.485
409.646	33.87723
409.861	11.94971
410.076	102.84441
410.291	93.93906
410.506	113.49667
410.721	91.02315
410.936	59.74963
411.15	57.32271
411.365	130.01446
411.58	195.9499
411.795	83.67102
412.01	154.95853
412.225	87.51768
412.439	69.45888
412.654	97.27703
412.869	113.55332
413.084	135.83291
413.299	131.47479
413.513	113.01884
413.728	120.77403
413.943	209.13269
414.157	160.35254
414.372	111.40939
414.587	105.58639
414.801	215.22321
415.016	183.17852
415.231	163.32932
415.445	171.79253
415.66	165.40654
415.874	164.3003
416.089	126.86374
416.304	191.61583
416.518	162.80397
416.733	170.15332
416.947	225.2369
417.162	239.36235
417.376	164.3003
417.59	335.93857
417.805	263.18572
418.019	229.2484
418.234	217.83377
418.448	235.36615
418.663	281.39433
418.877	241.43348
419.091	296.8125
419.306	234.76645
419.52	230.17987
419.734	344.00501
419.949	265.28549
420.163	270.52347
420.377	247.78941
420.591	308.79858
420.806	357.55801
421.02	382.68092
421.234	265.57623
421.448	344.20847
421.663	286.79165
421.877	208.36065
422.091	282.75712
422.305	342.21775
422.519	320.1571
422.733	398.14875
422.947	260.96915
423.161	318.65045
423.376	318.06577
423.59	357.82323
423.804	311.75768
424.018	392.73701
424.232	283.74808
424.446	416.18476
424.66	453.8636
424.874	395.77265
425.088	309.29016
425.302	475.91267
425.515	428.40571
425.729	374.70154
425.943	354.81856
426.157	422.59565
426.371	473.87715
426.585	407.7601
426.799	373.61822
427.013	532.48907
427.226	441.84525
427.44	414.22325
427.654	403.55142
427.868	415.95199
428.081	522.45559
428.295	506.68463
428.509	448.9844
428.723	484.98995
428.936	393.79215
429.15	374.09631
429.364	451.87392
429.577	385.45984
429.791	376.06253
430.005	512.3789
430.218	368.71006
430.432	354.56157
430.645	448.32402
430.859	432.57091
431.073	412.49334
431.286	521.56901
431.5	559.91622
431.713	431.98557
431.927	411.49565
432.14	503.43946
432.354	391.5708
432.567	472.62171
432.781	502.23858
432.994	511.85714
433.207	386.25624
433.421	562.75292
433.634	500.15283
433.848	608.62336
434.061	464.17042
434.274	399.53416
434.488	385.3983
434.701	398.221
434.914	469.02362
435.127	549.04411
435.341	543.98549
435.554	502.08506
435.767	626.73416
435.98	618.54886
436.194	427.31703
436.407	482.29621
436.62	646.79501
436.833	660.75274
437.046	667.98607
437.259	538.05541
437.473	640.01563
437.686	711.81016
437.899	585.94838
438.112	752.22451
438.325	628.78459
438.538	685.70413
438.751	834.44293
438.964	700.02585
439.177	674.92488
439.39	779.30015
439.603	865.03979
439.816	802.21102
440.029	906.77668
440.242	1085.27736
440.455	1168.50708
440.668	1075.49855
440.881	787.38141
441.094	929.19905
441.306	953.87188
441.519	1232.17394
441.732	1033.6464
441.945	1358.53288
442.158	1050.03901
442.37	1040.43846
442.583	1125.79779
442.796	1378.3917
443.009	1177.47154
443.222	1185.06792
443.434	1020.15517
443.647	1435.49103
443.86	1431.99007
444.072	1756.67615
444.285	1306.95937
444.498	1659.13197
444.71	1283.58746
444.923	1505.81314
445.136	1355.39569
445.348	1354.43764
445.561	1307.09551
445.773	1539.57153
445.986	1072.39794
446.198	1661.33391
446.411	1476.29437
446.623	1695.04153
446.836	1532.15155
447.048	1689.82366
447.261	1785.72871
447.473	1969.71298
447.686	1484.67064
447.898	1730.1366
448.11	1852.04976
448.323	2145.42882
448.535	1823.39824
448.748	1741.76679
448.96	1576.71801
449.172	1933.81354
449.385	1488.46046
449.597	1993.6205
449.809	1810.77784
450.021	2106.68088
450.234	1915.99518
450.446	1889.09964
450.658	1743.77429
450.87	1984.5482
451.083	1890.61633
451.295	2266.09268
451.507	1957.26909
451.719	1949.13224
451.931	2046.83297
452.143	2246.36274
452.356	1967.11243
452.568	2154.43669
452.78	2020.99526
452.992	2356.18353
453.204	2232.18889
453.416	2310.49221
453.628	1927.4688
453.84	2207.73359
454.052	1975.25569
454.264	2449.71816
454.476	2140.46046
454.688	2602.42482
454.9	2370.05907
455.112	2278.50905
455.324	2032.20042
455.536	2455.6825
455.747	2337.86283
455.959	2528.60358
456.171	2322.58902
456.383	2353.12071
456.595	2199.57825
456.807	2374.19748
457.018	2223.91237
457.23	2536.18907
457.442	2201.85095
457.654	2444.9827
457.865	2335.12552
458.077	2381.38474
458.289	2113.17172
458.501	2505.96046
458.712	2597.532
458.924	2973.03388
459.136	2392.0089
459.347	2474.3035
459.559	2289.26455
459.77	2766.1922
459.982	2651.54472
460.194	2810.50373
460.405	2330.97735
460.617	2649.96363
460.828	2566.98904
461.04	2837.98248
461.251	2501.55329
461.463	3148.47518
461.674	2814.51685
461.886	2906.91341
462.097	2538.26005
462.309	2959.55538
462.52	2426.00163
462.731	3189.09488
462.943	2586.09955
463.154	2816.82226
463.366	2615.1495
463.577	2978.56859
463.788	3032.36994
464	3176.28683
464.211	3036.31445
464.422	3619.48844
464.634	3329.82328
464.845	3371.84295
465.056	3337.81243
465.267	3478.36265
465.478	2903.46928
465.69	3502.09638
465.901	3164.49751
466.112	3568.40263
466.323	3379.07451
466.534	3696.76446
466.745	3533.15023
466.957	3797.93362
467.168	3533.68116
467.379	3632.83467
467.59	3232.32215
467.801	3361.3063
468.012	3380.78722
468.223	3728.02092
468.434	3358.52387
468.645	4065.79589
468.856	3965.29093
469.067	3874.3597
469.278	3619.61904
469.489	4019.99513
469.7	3540.65161
469.911	3765.06347
470.122	4098.05507
470.333	4522.85354
470.543	3665.69365
470.754	4209.69659
470.965	4054.69344
471.176	4282.25488
471.387	4317.16891
471.598	4373.70959
471.808	3928.13652
472.019	4399.73574
472.23	4139.79452
472.441	4226.45453
472.651	4252.70089
472.862	4458.06492
473.073	4517.71149
473.283	4461.82253
473.494	4267.85904
473.705	4390.44337
473.915	4439.71961
474.126	4912.94862
474.337	4577.44446
474.547	4911.07023
474.758	4858.90849
474.968	5100.87167
475.179	4804.98162
475.389	5001.60756
475.6	4937.81721
475.81	5199.3743
476.021	5241.10603
476.231	5585.21728
476.442	5265.78889
476.652	5311.39922
476.863	5104.86286
477.073	5407.78471
477.284	5271.36899
477.494	5586.09817
477.704	5588.74939
477.915	6114.24355
478.125	5440.41001
478.335	5897.94302
478.546	5966.92472
478.756	5967.86018
478.966	6055.24664
479.177	6213.21203
479.387	6126.60299
479.597	6399.40694
479.807	6188.92128
480.018	6323.43901
480.228	6262.30757
480.438	6491.41797
480.648	6569.6697
480.858	6912.36124
481.068	6313.6455
481.279	6811.97748
481.489	7063.53396
481.699	7156.78977
481.909	6783.61582
482.119	7739.85364
482.329	7474.29437
482.539	7588.64793
482.749	7114.29451
482.959	7677.33411
483.169	7632.91201
483.379	7986.21713
483.589	7905.1054
483.799	7902.61031
484.009	7756.49069
484.219	8012.09455
484.429	8057.09485
484.639	7993.30302
484.849	8057.70153
485.059	8543.0474
485.268	8406.50809
485.478	8646.23772
485.688	8120.27203
485.898	8541.77892
486.108	8417.82761
486.317	8879.47655
486.527	8683.68708
486.737	9224.52658
486.947	8933.06587
487.156	9214.27685
487.366	8826.57598
487.576	8935.97268
487.785	8779.29029
487.995	9095.40129
488.205	8976.57969
488.414	9331.89462
488.624	9061.20613
488.834	9185.13157
489.043	8905.61689
489.253	9045.66331
489.462	9079.14344
489.672	9450.76967
489.882	9453.60297
490.091	9786.59027
490.301	9288.60893
490.51	9744.75252
490.72	9537.57993
490.929	9831.41124
491.138	9730.39447
491.348	9786.55168
491.557	9630.81411
491.767	10008.08568
491.976	9796.77045
492.185	9965.56356
492.395	9835.89579
492.604	10149.0738
492.813	9778.45355
493.023	10344.7725
493.232	10008.21581
493.441	10057.69272
493.651	10158.3944
493.86	10142.67977
494.069	10162.60941
494.278	10393.68741
494.488	10329.51567
494.697	10651.60944
494.906	10216.00702
495.115	10774.74492
495.324	10304.64625
495.533	10939.4103
495.743	10713.43409
495.952	11112.27344
496.161	10960.50506
496.37	11125.92788
496.579	10982.42717
496.788	11408.4465
496.997	11255.34131
497.206	11264.74136
497.415	11029.67941
497.624	11553.3039
497.833	11400.06037
498.042	11636.90158
498.251	11516.63563
498.46	11888.49728
498.669	11673.0695
498.878	11617.91593
499.087	11448.71833
499.296	11999.61149
499.504	11850.78702
499.713	12005.79635
499.922	11808.70075
500.131	12158.35068
500.34	12012.27066
500.549	12211.40077
500.757	11830.83397
500.966	12219.07073
501.175	11918.31463
501.384	12377.32354
501.592	12030.05036
501.801	12312.25357
502.01	12246.05943
502.218	12387.65458
502.427	12257.99626
502.636	12393.36025
502.844	12066.76515
503.053	12296.7352
503.262	12314.54776
503.47	12408.49093
503.679	12229.49226
503.887	12431.38514
504.096	12245.07443
504.304	12524.56966
504.513	12438.56918
504.721	12451.8381
504.93	12027.83335
505.138	12555.61598
505.347	12277.93209
505.555	12463.77618
505.764	12234.82474
505.972	12567.67598
506.18	11973.24309
506.389	12282.7382
506.597	12182.8304
506.806	12445.43854
507.014	12207.87882
507.222	12524.55927
507.431	12255.84493
507.639	12322.98905
507.847	12207.01888
508.055	12672.81412
508.264	12415.1258
508.472	12493.52758
508.68	12302.33022
508.888	12691.25335
509.096	12525.1336
509.305	12706.09058
509.513	12408.73089
509.721	12644.84203
509.929	12550.56683
510.137	12673.17233
510.345	12452.16031
510.553	12628.10091
510.762	12523.90368
510.97	12610.52333
511.178	12691.71178
511.386	12741.28375
511.594	12564.1364
511.802	12840.09063
512.01	12672.20506
512.218	12953.54241
512.426	12895.42549
512.634	13054.14667
512.842	12901.89786
513.049	13018.39111
513.257	12800.9632
513.465	13200.57711
513.673	12983.40006
513.881	13162.11336
514.089	13046.48945
514.297	13199.83034
514.504	13067.99659
514.712	13422.62845
514.92	13160.38254
515.128	13605.98961
515.336	13258.36442
515.543	13387.56676
515.751	13284.32862
515.959	13250.74944
516.166	13041.17709
516.374	13482.24751
516.582	13414.84005
516.789	13533.12248
516.997	13372.78675
517.205	13395.51373
517.412	13320.11229
517.62	13601.15064
517.827	13394.23453
518.035	13412.58436
518.243	13376.30532
518.45	13307.56386
518.658	13201.39199
518.865	13338.03498
519.073	13383.38043
519.28	13347.52019
519.488	13115.14847
519.695	13274.5513
519.902	12915.95141
520.11	13280.30694
520.317	13143.29307
520.525	13196.26128
520.732	13025.35625
520.939	13262.23788
521.147	12880.98112
521.354	13186.15052
521.561	13142.65195
521.769	13188.83376
521.976	12748.40027
522.183	13227.08055
522.391	12895.8557
522.598	13286.69722
522.805	13042.34723
523.012	13106.01064
523.219	13128.7114
523.427	13210.31241
523.634	13212.85371
523.841	13382.78428
524.048	13062.40265
524.255	13485.05661
524.462	13227.36961
524.669	13241.14923
524.877	13186.35273
525.084	13329.16829
525.291	13097.83414
525.498	13434.60466
525.705	13247.15561
525.912	13640.1825
526.119	13348.02333
526.326	13458.09829
526.533	13423.77655
526.74	13762.52708
526.947	13544.83998
527.153	13902.77621
527.36	13657.03523
527.567	13796.92787
527.774	13626.84227
527.981	13973.16288
528.188	13771.80727
528.395	14016.02967
528.602	13786.59371
528.808	14065.29475
529.015	13859.66103
529.222	14094.2697
529.429	13774.41072
529.635	14149.99921
529.842	13994.80574
530.049	14101.06008
530.256	13889.98352
530.462	14220.64233
530.669	14095.99093
530.876	14305.24024
531.082	14149.42031
531.289	14305.70026
531.495	14179.44316
531.702	14334.30277
531.909	14083.9812
532.115	14645.59764
532.322	14189.50156
532.528	14411.55188
532.735	14296.61919
532.941	14531.34427
533.148	14284.16909
533.354	14391.60895
533.561	14449.88659
533.767	14384.95859
533.974	14276.27458
534.18	14564.70523
534.387	14285.00946
534.593	14580.27927
534.799	14363.01996
535.006	14580.67754
535.212	14400.90125
535.418	14545.3164
535.625	14373.32722
535.831	14528.75775
536.037	14399.76008
536.244	14580.77383
536.45	14218.38939
536.656	14505.49635
536.862	14608.38874
537.068	14743.32161
537.275	14543.12413
537.481	14607.52423
537.687	14659.51037
537.893	14991.36157
538.099	14639.00432
538.305	14859.11597
538.512	14628.20542
538.718	14863.92361
538.924	14573.59106
539.13	14556.6297
539.336	14662.81284
539.542	14738.25534
539.748	14768.58105
539.954	14887.14602
540.16	14710.27293
540.366	14903.67669
540.572	14812.43886
540.778	14830.80665
540.984	14531.2532
541.19	14796.17257
541.396	14613.38468
541.602	14821.89932
541.807	14511.0119
542.013	14884.42521
542.219	14415.26696
542.425	14752.6542
542.631	14412.44902
542.837	14503.94817
543.042	14410.52556
543.248	14725.35564
543.454	14346.20013
543.66	14726.2069
543.865	14347.6145
544.071	14721.01772
544.277	14411.113
544.483	14528.04177
544.688	14375.36796
544.894	14769.63162
545.1	14454.20206
545.305	14677.63589
545.511	14482.50972
545.716	14447.18202
545.922	14237.58979
546.128	14539.30216
546.333	14327.89049
546.539	14580.76737
546.744	14287.42837
546.95	14611.69724
547.155	14249.96848
547.361	14518.70612
547.566	14207.89762
547.772	14404.26981
547.977	14307.13291
548.182	14400.09127
548.388	14222.52592
548.593	14506.77651
548.799	14229.27851
549.004	14392.75255
549.209	14304.82836
549.415	14488.81895
549.62	14193.6627
549.825	14383.12104
550.031	14105.47367
550.236	14508.22702
550.441	14317.73609
550.646	14435.95186
550.852	14411.81936
551.057	14352.35653
551.262	14429.28788
551.467	14612.37655
551.672	14255.13866
551.878	14638.81465
552.083	14377.48751
552.288	14638.401
552.493	14319.21006
552.698	14441.26725
552.903	14320.19083
553.108	14741.45778
553.313	14487.09499
553.518	14615.98692
553.723	14558.0698
553.928	14639.53483
554.133	14390.43654
554.338	14705.34486
554.543	14563.67033
554.748	14664.83637
554.953	14531.35233
555.158	14765.12683
555.363	14590.07457
555.568	14592.88475
555.773	14756.94712
555.978	14874.21027
556.182	14461.52285
556.387	14682.7931
556.592	14435.38449
556.797	14796.75155
557.002	14588.41077
557.206	14780.71691
557.411	14400.08038
557.616	14666.97781
557.821	14659.95884
558.025	14789.60361
558.23	14581.78689
558.435	14857.1195
558.64	14619.34567
558.844	14716.41832
559.049	14525.35335
559.253	14833.82179
559.458	14540.11412
559.663	14717.84825
559.867	14616.71817
560.072	14657.97341
560.276	14575.59447
560.481	14707.0893
560.685	14638.82484
560.89	14551.45879
561.094	14473.46744
561.299	14606.49173
561.503	14186.20075
561.708	14623.34807
561.912	14231.8464
562.117	14357.2576
562.321	14255.7204
562.525	14448.06336
562.73	14364.28377
562.934	14438.68147
563.139	14260.1406
563.343	14390.86272
563.547	14183.31313
563.752	14393.03208
563.956	14288.23237
564.16	14422.49913
564.364	14174.40251
564.569	14358.72449
564.773	14186.89647
564.977	14326.21649
565.181	14209.01089
565.385	14188.18588
565.59	14122.98781
565.794	14256.76325
565.998	14073.01652
566.202	14247.3834
566.406	14083.50378
566.61	14188.91384
566.814	13993.04089
567.018	14232.92957
567.222	14116.7354
567.426	13983.56478
567.63	13930.03685
567.834	14029.76123
568.038	13810.57614
568.242	14074.81357
568.446	13806.81318
568.65	14001.69972
568.854	13781.44145
569.058	14089.59725
569.262	13849.62399
