Data from Sun spf600_Subt2__0__10-01-59-398.txt Node

Date: Tue Sep 23 10:01:59 EDT 2025
User: brett
Spectrometer: USB4F03499
Trigger mode: 4
Integration Time (sec): 1.000000E-1
Scans to average: 1
Electric dark correction enabled: true
Nonlinearity correction enabled: true
Boxcar width: 0
XAxis mode: Wavelengths
Number of Pixels in Spectrum: 3648
>>>>>Begin Spectral Data<<<<<
0	24.60466
0.225	24.60466
0.449	24.60466
0.674	-51.48037
0.898	3.83901
1.123	-25.95098
1.347	-28.25958
1.572	17.5792
1.796	107.04225
2.021	35.90859
2.245	-5.33599
2.469	-48.96056
2.694	1.52486
2.918	15.28566
3.143	-83.49563
3.367	-7.63802
3.591	22.17033
3.815	111.35013
4.04	4895.51405
4.264	6802.46273
4.488	6783.43086
4.712	6649.4897
4.936	6551.8495
5.161	6595.10381
5.385	6565.95781
5.609	6673.68036
5.833	6642.36991
6.057	6832.93926
6.281	6692.2415
6.505	6706.30516
6.729	6582.886
6.953	6875.01998
7.177	6693.7314
7.401	6695.79188
7.625	6728.03639
7.849	6773.61225
8.073	6806.4572
8.297	6731.87347
8.521	6738.84284
8.744	6896.4005
8.968	6954.16639
9.192	6911.237
9.416	6922.02757
9.64	6937.03076
9.863	6894.10514
10.087	6856.74162
10.311	6870.44027
10.535	6950.95542
10.758	6912.33606
10.982	6845.2133
11.205	6960.07462
11.429	6978.74516
11.653	7162.10988
11.876	6992.29401
12.1	7073.51819
12.323	7014.83133
12.547	7151.33674
12.77	7186.45297
12.994	7209.93002
13.217	6948.87696
13.441	7225.15877
13.664	7445.9736
13.887	7087.72573
14.111	6933.8104
14.334	7165.41137
14.557	7076.89797
14.781	7374.90729
15.004	7161.2042
15.227	6887.52606
15.451	7227.55758
15.674	7242.05034
15.897	7112.94547
16.12	7128.41126
16.343	7295.50465
16.567	7224.14585
16.79	7591.42628
17.013	7257.65994
17.236	7533.38192
17.459	7141.82448
17.682	7457.36719
17.905	7522.88116
18.128	7446.51178
18.351	7564.18228
18.574	7401.69582
18.797	7613.96883
19.02	7381.07204
19.243	7734.9039
19.466	7414.11427
19.689	7442.60476
19.911	7458.93916
20.134	7696.98716
20.357	7736.40041
20.58	7762.28697
20.803	7791.63133
21.025	7733.15449
21.248	7551.60931
21.471	7841.92013
21.694	7590.66619
21.916	7638.67758
22.139	7696.76395
22.362	7627.06688
22.584	7708.84748
22.807	7886.10325
23.029	7704.55537
23.252	7687.03238
23.475	7886.84496
23.697	7865.40573
23.92	7899.58537
24.142	8027.64513
24.365	7746.94276
24.587	8057.02321
24.809	8072.65519
25.032	8035.65494
25.254	7841.38983
25.477	8134.13042
25.699	8092.46682
25.921	8261.1277
26.144	8227.7301
26.366	8213.30011
26.588	8133.1572
26.81	8170.67849
27.033	8085.73614
27.255	8143.45553
27.477	8255.60888
27.699	8385.97474
27.921	8361.35578
28.144	8165.6231
28.366	8377.5969
28.588	8425.85241
28.81	8500.08724
29.032	8504.68419
29.254	8606.05739
29.476	8309.73668
29.698	8533.38234
29.92	8437.93697
30.142	8818.97261
30.364	8627.33892
30.586	8683.6791
30.808	8888.49053
31.029	8956.9242
31.251	8797.32948
31.473	8631.31599
31.695	8997.7794
31.917	8748.53255
32.139	8629.02587
32.36	8935.14016
32.582	8952.8269
32.804	8800.38315
33.026	8865.61806
33.247	8878.96514
33.469	8897.93684
33.691	8806.60837
33.912	8995.19092
34.134	9159.80459
34.355	9140.47231
34.577	9309.07998
34.798	9202.95588
35.02	9305.57001
35.242	9017.67398
35.463	9145.57198
35.684	9274.41244
35.906	9321.79006
36.127	9440.7427
36.349	9415.67271
36.57	9841.2348
36.792	9627.00671
37.013	9788.22197
37.234	9618.54328
37.456	9657.5675
37.677	9649.62346
37.898	9872.08547
38.119	9786.33759
38.341	9797.97668
38.562	9685.45008
38.783	9772.33193
39.004	9732.22182
39.225	9728.54941
39.447	9955.683
39.668	9921.82974
39.889	10070.43887
40.11	10071.54388
40.331	10259.35832
40.552	10540.65976
40.773	10299.25679
40.994	10350.03242
41.215	10384.96666
41.436	10532.1092
41.657	10361.7019
41.878	10598.5582
42.099	11057.21812
42.32	10980.00113
42.54	10711.26346
42.761	11027.16292
42.982	11101.85672
43.203	11049.44333
43.424	11116.76144
43.645	11111.91289
43.865	11160.66218
44.086	11289.17544
44.307	11512.56421
44.527	11682.21619
44.748	11818.10997
44.969	11954.41975
45.189	12115.22545
45.41	12126.33638
45.631	12540.33937
45.851	12787.98877
46.072	12629.62165
46.292	12720.05024
46.513	12944.30718
46.733	13332.30106
46.954	13494.51895
47.174	13917.78138
47.395	14610.66098
47.615	14611.03021
47.836	15200.45285
48.056	15619.64472
48.276	15493.11207
48.497	16359.63361
48.717	17056.98555
48.937	17885.57288
49.158	19157.59431
49.378	20254.23926
49.598	21798.59915
49.818	24237.00953
50.038	26201.05901
50.259	29001.87639
50.479	32009.86241
50.699	36253.79063
50.919	41273.15717
51.139	45945.22641
51.359	51602.41246
51.579	59163.95393
51.799	63446.93366
52.02	65630.22196
52.24	65593.54983
52.46	65634.80922
52.68	65650.87036
52.899	65595.84049
53.119	65621.0496
53.339	65662.34806
53.559	65611.88013
53.779	65531.76957
53.999	65552.34858
54.219	65488.37191
54.439	65673.83032
54.658	65708.3046
54.878	65609.58821
55.098	65648.57537
55.318	65586.67894
55.538	65559.21144
55.757	65609.58821
55.977	65621.0496
56.197	65550.06131
56.416	65623.34242
56.636	65621.0496
56.855	65643.98593
57.075	65559.21144
57.295	65655.4609
57.514	65696.80858
57.734	65593.54983
57.953	65609.58821
58.173	65600.42235
58.392	65637.10313
58.612	65646.28056
58.831	65650.87036
59.051	65588.96906
59.27	65522.62794
59.489	65605.00492
59.709	65618.75696
59.928	65639.39721
60.147	65623.34242
60.367	65648.57537
60.586	65570.65311
60.805	65630.22196
61.024	65611.88013
61.244	65692.21146
61.463	65625.63541
61.682	65602.71354
61.901	65591.25936
62.12	65648.57537
62.34	65611.88013
62.559	65616.4645
62.778	65492.9371
62.997	65637.10313
63.216	65680.72187
63.435	65673.83032
63.654	65522.62794
63.873	65634.80922
64.092	65621.0496
64.311	65561.49942
64.53	65600.42235
64.749	65618.75696
64.968	65607.29647
65.187	65703.70564
65.405	65621.0496
65.624	65616.4645
65.843	65595.84049
66.062	65605.00492
66.281	65568.36442
66.499	65692.21146
66.718	65673.83032
66.937	65591.25936
67.156	65607.29647
67.374	65646.28056
67.593	65508.92079
67.812	65616.4645
68.03	65627.92859
68.249	65676.12732
68.467	65646.28056
68.686	65579.80965
68.905	65568.36442
69.123	65738.21586
69.342	65611.88013
69.56	65641.69148
69.779	65715.20442
69.997	65588.96906
70.216	65630.22196
70.434	65605.00492
70.652	65575.23102
70.871	65621.0496
71.089	65648.57537
71.307	65689.91317
71.526	65598.13133
71.744	65655.4609
71.962	65648.57537
72.181	65653.16554
72.399	65646.28056
72.617	65602.71354
72.835	65586.67894
73.054	65655.4609
73.272	65632.5155
73.49	65643.98593
73.708	65696.80858
73.926	65687.61507
74.144	65683.01942
74.362	65598.13133
74.58	65632.5155
74.798	65630.22196
75.016	65614.17222
75.234	65646.28056
75.452	65621.0496
75.67	65584.389
75.888	65657.75644
76.106	65559.21144
76.324	65692.21146
76.542	65696.80858
76.76	65616.4645
76.978	65627.92859
77.196	65660.05216
77.413	65586.67894
77.631	65563.78757
77.849	65671.53351
78.067	65582.09923
78.284	65579.80965
78.502	65637.10313
78.72	65637.10313
78.938	65692.21146
79.155	65673.83032
79.373	65627.92859
79.59	65673.83032
79.808	65637.10313
80.026	65662.34806
80.243	65646.28056
80.461	65536.34144
80.678	65520.34297
80.896	65579.80965
81.113	65609.58821
81.331	65641.69148
81.548	65435.92232
81.766	65575.23102
81.983	65598.13133
82.2	65648.57537
82.418	65703.70564
82.635	65568.36442
82.852	65472.39925
83.07	65618.75696
83.287	65630.22196
83.504	65595.84049
83.722	65522.62794
83.939	65611.88013
84.156	65515.77357
84.373	65669.23687
84.591	65627.92859
84.808	65614.17222
85.025	65575.23102
85.242	65648.57537
85.459	65607.29647
85.676	65618.75696
85.893	65685.31716
86.11	65600.42235
86.327	65602.71354
86.544	65614.17222
86.761	65643.98593
86.978	65575.23102
87.195	65609.58821
87.412	65719.80523
87.629	65664.64415
87.846	65625.63541
88.063	65540.91402
88.28	65618.75696
88.497	65627.92859
88.713	65657.75644
88.93	65683.01942
89.147	65643.98593
89.364	65584.389
89.58	65611.88013
89.797	65584.389
90.014	65614.17222
90.231	65561.49942
90.447	65639.39721
90.664	65584.389
90.881	65593.54983
91.097	65547.77422
91.314	65554.63602
91.53	65632.5155
91.747	65602.71354
91.963	65666.94042
92.18	65618.75696
92.396	65618.75696
92.613	65605.00492
92.829	65703.70564
93.046	65687.61507
93.262	65678.42451
93.479	65586.67894
93.695	65593.54983
93.911	65627.92859
94.128	65678.42451
94.344	65540.91402
94.56	65579.80965
94.777	65726.70783
94.993	65657.75644
95.209	65552.34858
95.426	65399.48958
95.642	65680.72187
95.858	65641.69148
96.074	65625.63541
96.29	65692.21146
96.506	65621.0496
96.723	65602.71354
96.939	65673.83032
97.155	65662.34806
97.371	65611.88013
97.587	65643.98593
97.803	65646.28056
98.019	65637.10313
98.235	65579.80965
98.451	65669.23687
98.667	65522.62794
98.883	65660.05216
99.099	65692.21146
99.315	65664.64415
99.53	65605.00492
99.746	65637.10313
99.962	65671.53351
100.178	65627.92859
100.394	65630.22196
100.61	65696.80858
100.825	65582.09923
101.041	65660.05216
101.257	65607.29647
101.473	65611.88013
101.688	65593.54983
101.904	65650.87036
102.12	65618.75696
102.335	65605.00492
102.551	65650.87036
102.766	65559.21144
102.982	65637.10313
103.198	65657.75644
103.413	65616.4645
103.629	65648.57537
103.844	65641.69148
104.06	65630.22196
104.275	65577.52025
104.49	65595.84049
104.706	65669.23687
104.921	65033.00974
105.137	65616.4645
105.352	65550.06131
105.567	65630.22196
105.783	65607.29647
105.998	65600.42235
106.213	65582.09923
106.429	65666.94042
106.644	65650.87036
106.859	65609.58821
107.074	65483.80742
107.29	65669.23687
107.505	65634.80922
107.72	65563.78757
107.935	65568.36442
108.15	65600.42235
108.365	65680.72187
108.58	65577.52025
108.795	65570.65311
109.01	65577.52025
109.226	65701.40643
109.441	65463.27585
109.656	65680.72187
109.871	65513.48913
110.085	65582.09923
110.3	65611.88013
110.515	65689.91317
110.73	65527.1984
110.945	65639.39721
111.16	65582.09923
111.375	65586.67894
111.59	65634.80922
111.804	65605.00492
112.019	65607.29647
112.234	65643.98593
112.449	65582.09923
112.663	65621.0496
112.878	65643.98593
113.093	65623.34242
113.308	65536.34144
113.522	65621.0496
113.737	65742.82038
113.951	65591.25936
114.166	65623.34242
114.381	65611.88013
114.595	65634.80922
114.81	65605.00492
115.024	65618.75696
115.239	65591.25936
115.453	65653.16554
115.668	65637.10313
115.882	65584.389
116.097	65637.10313
116.311	65719.80523
116.525	65611.88013
116.74	65726.70783
116.954	65575.23102
117.169	65623.34242
117.383	65605.00492
117.597	65561.49942
117.811	65621.0496
118.026	65536.34144
118.24	65572.94198
118.454	65625.63541
118.668	65627.92859
118.883	65627.92859
119.097	65609.58821
119.311	65609.58821
119.525	65611.88013
119.739	65616.4645
119.953	65637.10313
120.167	65495.21996
120.381	65646.28056
120.595	65611.88013
120.809	65653.16554
121.023	65598.13133
121.237	65637.10313
121.451	65646.28056
121.665	65641.69148
121.879	65609.58821
122.093	65545.48731
122.307	65717.50473
122.521	65657.75644
122.735	65545.48731
122.949	65641.69148
123.163	65696.80858
123.376	65579.80965
123.59	65559.21144
123.804	65616.4645
124.018	65653.16554
124.231	65664.64415
124.445	65687.61507
124.659	65543.20058
124.872	65524.91308
125.086	65621.0496
125.3	65616.4645
125.513	65598.13133
125.727	65653.16554
125.94	65600.42235
126.154	65621.0496
126.368	65669.23687
126.581	65643.98593
126.795	65653.16554
127.008	65648.57537
127.222	65680.72187
127.435	65669.23687
127.648	65666.94042
127.862	65595.84049
128.075	65660.05216
128.289	65577.52025
128.502	65671.53351
128.715	65607.29647
128.929	65722.10591
129.142	65648.57537
129.355	65618.75696
129.568	65556.92364
129.782	65595.84049
129.995	65540.91402
130.208	65641.69148
130.421	65662.34806
130.634	65655.4609
130.848	65577.52025
131.061	65540.91402
131.274	65582.09923
131.487	65680.72187
131.7	65653.16554
131.913	65579.80965
132.126	65625.63541
132.339	65529.48389
132.552	65440.47951
132.765	65547.77422
132.978	65625.63541
133.191	65648.57537
133.404	65584.389
133.617	65643.98593
133.83	65595.84049
134.043	65673.83032
134.255	65699.10741
134.468	65598.13133
134.681	65694.50993
134.894	65735.91389
135.107	65664.64415
135.319	65586.67894
135.532	65614.17222
135.745	65579.80965
135.958	65632.5155
136.17	65706.00503
136.383	65609.58821
136.596	65657.75644
136.808	65630.22196
137.021	65568.36442
137.233	65660.05216
137.446	65602.71354
137.659	65641.69148
137.871	65492.9371
138.084	65632.5155
138.296	65593.54983
138.509	65627.92859
138.721	65662.34806
138.934	65609.58821
139.146	65595.84049
139.358	65655.4609
139.571	65534.05541
139.783	65538.62764
139.996	65614.17222
140.208	65559.21144
140.42	65566.07591
140.632	65593.54983
140.845	65646.28056
141.057	65706.00503
141.269	65653.16554
141.481	65627.92859
141.694	65673.83032
141.906	65607.29647
142.118	65724.40678
142.33	65600.42235
142.542	65680.72187
142.754	65588.96906
142.967	65712.9043
143.179	65666.94042
143.391	65554.63602
143.603	65646.28056
143.815	65543.20058
144.027	65623.34242
144.239	65515.77357
144.451	65614.17222
144.663	65625.63541
144.875	65550.06131
145.086	65518.05818
145.298	65570.65311
145.51	65648.57537
145.722	65552.34858
145.934	65641.69148
146.146	65646.28056
146.358	65630.22196
146.569	65680.72187
146.781	65595.84049
146.993	65678.42451
147.205	65531.76957
147.416	65632.5155
147.628	65623.34242
147.84	65582.09923
148.051	65630.22196
148.263	65595.84049
148.475	65669.23687
148.686	65634.80922
148.898	65559.21144
149.109	65543.20058
149.321	65671.53351
149.532	65550.06131
149.744	65607.29647
149.955	65584.389
150.167	65639.39721
150.378	65625.63541
150.59	65655.4609
150.801	65694.50993
151.013	65680.72187
151.224	65543.20058
151.435	65630.22196
151.647	65543.20058
151.858	65598.13133
152.069	65630.22196
152.281	65632.5155
152.492	65602.71354
152.703	65637.10313
152.914	65502.06958
153.126	65598.13133
153.337	65602.71354
153.548	65699.10741
153.759	65593.54983
153.97	65678.42451
154.181	65662.34806
154.392	65572.94198
154.604	65689.91317
154.815	65653.16554
155.026	65586.67894
155.237	65630.22196
155.448	65522.62794
155.659	65605.00492
155.87	65611.88013
156.081	65591.25936
156.292	65660.05216
156.502	65692.21146
156.713	65588.96906
156.924	65566.07591
157.135	65609.58821
157.346	65625.63541
157.557	65588.96906
157.768	65655.4609
157.978	65696.80858
158.189	65600.42235
158.4	65662.34806
158.611	65600.42235
158.821	65550.06131
159.032	65639.39721
159.243	65570.65311
159.453	65618.75696
159.664	65618.75696
159.875	65579.80965
160.085	65655.4609
160.296	65579.80965
160.507	65639.39721
160.717	65664.64415
160.928	65577.52025
161.138	65781.98888
161.349	65637.10313
161.559	65703.70564
161.77	65634.80922
161.98	65657.75644
162.19	65584.389
162.401	65639.39721
162.611	65572.94198
162.822	65646.28056
163.032	65639.39721
163.242	65653.16554
163.453	65572.94198
163.663	65676.12732
163.873	65600.42235
164.084	65662.34806
164.294	65673.83032
164.504	65623.34242
164.714	65605.00492
164.924	65607.29647
165.135	65657.75644
165.345	65577.52025
165.555	65616.4645
165.765	65563.78757
165.975	65572.94198
166.185	65621.0496
166.395	65648.57537
166.605	65689.91317
166.815	65678.42451
167.025	65637.10313
167.235	65538.62764
167.445	65735.91389
167.655	65600.42235
167.865	65630.22196
168.075	65614.17222
168.285	65630.22196
168.495	65611.88013
168.705	65547.77422
168.915	65522.62794
169.124	65586.67894
169.334	65588.96906
169.544	65593.54983
169.754	65630.22196
169.964	65584.389
170.173	65559.21144
170.383	65605.00492
170.593	65611.88013
170.802	65568.36442
171.012	65671.53351
171.222	65634.80922
171.431	65676.12732
171.641	65641.69148
171.851	65696.80858
172.06	65655.4609
172.27	65657.75644
172.479	65591.25936
172.689	65653.16554
172.898	65600.42235
173.108	65643.98593
173.317	65577.52025
173.527	65683.01942
173.736	65687.61507
173.945	65614.17222
174.155	65575.23102
174.364	65577.52025
174.574	65614.17222
174.783	65625.63541
174.992	65563.78757
175.202	65623.34242
175.411	65566.07591
175.62	65653.16554
175.829	65666.94042
176.039	65602.71354
176.248	65572.94198
176.457	65625.63541
176.666	65540.91402
176.875	65657.75644
177.084	65586.67894
177.294	65664.64415
177.503	65678.42451
177.712	65536.34144
177.921	65660.05216
178.13	65627.92859
178.339	65715.20442
178.548	65648.57537
178.757	65616.4645
178.966	65577.52025
179.175	65591.25936
179.384	65634.80922
179.593	65611.88013
179.802	65689.91317
180.011	65616.4645
180.219	65637.10313
180.428	65607.29647
180.637	65607.29647
180.846	65577.52025
181.055	65609.58821
181.263	65634.80922
181.472	65531.76957
181.681	65664.64415
181.89	65600.42235
182.098	65534.05541
182.307	65641.69148
182.516	65602.71354
182.724	65618.75696
182.933	65582.09923
183.142	65706.00503
183.35	65602.71354
183.559	65609.58821
183.767	65625.63541
183.976	65655.4609
184.184	65669.23687
184.393	65595.84049
184.601	65655.4609
184.81	65536.34144
185.018	65660.05216
185.227	65598.13133
185.435	65678.42451
185.644	65582.09923
185.852	65724.40678
186.06	65579.80965
186.269	65579.80965
186.477	65575.23102
186.685	65623.34242
186.894	65534.05541
187.102	65618.75696
187.31	65550.06131
187.518	65623.34242
187.727	65708.3046
187.935	65685.31716
188.143	65625.63541
188.351	65593.54983
188.559	65685.31716
188.768	65547.77422
188.976	65568.36442
189.184	65584.389
189.392	65582.09923
189.6	65591.25936
189.808	65511.20487
190.016	65653.16554
190.224	65641.69148
190.432	65611.88013
190.64	65616.4645
190.848	65607.29647
191.056	65559.21144
191.264	65598.13133
191.472	65623.34242
191.679	65639.39721
191.887	65632.5155
192.095	65715.20442
192.303	65595.84049
192.511	65646.28056
192.719	65722.10591
192.926	65566.07591
193.134	65722.10591
193.342	65650.87036
193.55	65630.22196
193.757	65623.34242
193.965	65600.42235
194.173	65584.389
194.38	65689.91317
194.588	65664.64415
194.796	65643.98593
195.003	65568.36442
195.211	65664.64415
195.418	65646.28056
195.626	65712.9043
195.833	65607.29647
196.041	65563.78757
196.248	65623.34242
196.456	65566.07591
196.663	65522.62794
196.871	65653.16554
197.078	65605.00492
197.285	65630.22196
197.493	65605.00492
197.7	65486.08958
197.908	65598.13133
198.115	65639.39721
198.322	65609.58821
198.529	65680.72187
198.737	65699.10741
198.944	65605.00492
199.151	65696.80858
199.358	65662.34806
199.566	65740.51803
199.773	65531.76957
199.98	65627.92859
200.187	65657.75644
200.394	65621.0496
200.601	65499.7862
200.809	65710.60435
201.016	65598.13133
201.223	65591.25936
201.43	65706.00503
201.637	65648.57537
201.844	65653.16554
202.051	65726.70783
202.258	65602.71354
202.465	65643.98593
202.672	65715.20442
202.878	65621.0496
203.085	65648.57537
203.292	65602.71354
203.499	65572.94198
203.706	65621.0496
203.913	65618.75696
204.12	65680.72187
204.326	65662.34806
204.533	65673.83032
204.74	65563.78757
204.947	65611.88013
205.153	65623.34242
205.36	65607.29647
205.567	65712.9043
205.773	65706.00503
205.98	65584.389
206.187	65627.92859
206.393	65618.75696
206.6	65641.69148
206.806	65683.01942
207.013	65556.92364
207.22	65563.78757
207.426	65673.83032
207.633	65614.17222
207.839	65547.77422
208.046	65579.80965
208.252	65582.09923
208.458	65577.52025
208.665	65605.00492
208.871	65643.98593
209.078	65536.34144
209.284	65627.92859
209.49	65639.39721
209.697	65641.69148
209.903	65680.72187
210.109	65646.28056
210.316	65579.80965
210.522	65660.05216
210.728	65598.13133
210.934	65401.76534
211.14	65641.69148
211.347	65701.40643
211.553	65586.67894
211.759	65609.58821
211.965	65563.78757
212.171	65586.67894
212.377	65552.34858
212.583	65614.17222
212.789	65650.87036
212.996	65600.42235
213.202	65566.07591
213.408	65607.29647
213.614	65614.17222
213.82	65662.34806
214.025	65646.28056
214.231	65692.21146
214.437	65650.87036
214.643	65547.77422
214.849	65611.88013
215.055	65618.75696
215.261	65676.12732
215.467	65609.58821
215.672	65689.91317
215.878	65550.06131
216.084	65669.23687
216.29	65609.58821
216.496	65534.05541
216.701	65577.52025
216.907	65671.53351
217.113	65611.88013
217.318	65543.20058
217.524	65655.4609
217.73	65666.94042
217.935	65634.80922
218.141	65582.09923
218.346	65600.42235
218.552	65632.5155
218.758	65600.42235
218.963	65588.96906
219.169	65598.13133
219.374	65609.58821
219.58	65609.58821
219.785	65630.22196
219.991	65556.92364
220.196	65710.60435
220.401	65643.98593
220.607	65614.17222
