Data from 3_57 pm cloudy_Subt2__4__15-59-37-651.txt Node

Date: Tue Oct 07 15:59:37 EDT 2025
User: brett
Spectrometer: USB4F03499
Trigger mode: 4
Integration Time (sec): 1.000000E-2
Scans to average: 1
Electric dark correction enabled: true
Nonlinearity correction enabled: true
Boxcar width: 0
XAxis mode: Wavelengths
Number of Pixels in Spectrum: 3648
>>>>>Begin Spectral Data<<<<<
345.386	-18.11994
345.605	-18.11994
345.824	-18.11994
346.044	-10.1717
346.263	-22.2637
346.482	5.38902
346.701	-22.81368
346.92	33.69882
347.139	6.62191
347.358	-2.89067
347.577	15.57607
347.796	-14.64647
348.015	-11.95752
348.234	20.71448
348.453	-4.23643
348.672	-11.17247
348.891	-14.31071
349.11	-10.94742
349.329	124.88753
349.548	197.21534
349.767	180.27765
349.986	179.03618
350.205	223.87303
350.424	182.24845
350.643	201.49098
350.862	212.47914
351.08	200.04248
351.299	224.41001
351.518	214.10988
351.737	217.69944
351.956	225.39176
352.174	219.57756
352.393	239.22414
352.612	236.73885
352.831	199.64745
353.049	229.84182
353.268	202.13981
353.487	223.42808
353.705	201.67692
353.924	206.69816
354.143	204.8381
354.361	215.01326
354.58	210.63294
354.798	244.45729
355.017	249.95119
355.236	218.89781
355.454	228.40429
355.673	239.90464
355.891	266.52933
356.11	223.78897
356.328	258.66132
356.547	214.34175
356.765	269.06343
356.984	251.50843
357.202	258.9433
357.42	259.71724
357.639	242.15545
357.857	242.28546
358.076	294.00235
358.294	216.10002
358.512	284.9969
358.731	287.36332
358.949	278.31214
359.167	261.70302
359.386	273.7233
359.604	287.68835
359.822	267.09124
360.04	316.61117
360.259	268.83818
360.477	264.44243
360.695	282.39068
360.913	263.45477
361.131	292.44967
361.35	244.91416
361.568	293.59843
361.786	254.63232
362.004	237.93964
362.222	288.62669
362.44	272.8992
362.658	262.96773
362.876	293.10707
363.094	281.65619
363.312	230.62498
363.53	294.13865
363.749	299.59844
363.967	286.75036
364.184	287.42172
364.402	277.73176
364.62	250.61324
364.838	259.63955
365.056	273.03145
365.274	316.98245
365.492	297.14846
365.71	300.88566
365.928	310.53967
366.146	273.84506
366.364	269.39057
366.581	334.8158
366.799	338.89448
367.017	345.71619
367.235	327.14183
367.453	325.16356
367.67	371.71439
367.888	322.76533
368.106	354.95714
368.323	372.16411
368.541	366.00722
368.759	370.16127
368.977	334.30586
369.194	348.51323
369.412	385.91486
369.629	382.61255
369.847	403.47238
370.065	342.05396
370.282	402.31552
370.5	373.73053
370.717	410.91007
370.935	420.57051
371.152	358.33441
371.37	425.99274
371.588	421.13377
371.805	429.8144
372.022	438.64184
372.24	408.58344
372.457	376.1636
372.675	464.03694
372.892	439.05663
373.11	440.67144
373.327	455.92235
373.544	397.61547
373.762	457.708
373.979	482.05245
374.196	493.50706
374.414	467.25822
374.631	468.55774
374.848	478.47544
375.066	446.82401
375.283	410.68625
375.5	462.90075
375.717	473.60294
375.935	438.22632
376.152	459.93556
376.369	449.38127
376.586	459.85132
376.803	473.96405
377.02	457.10992
377.238	469.66878
377.455	464.47478
377.672	461.20515
377.889	506.00978
378.106	476.85624
378.323	508.93723
378.54	477.47542
378.757	518.88
378.974	456.50538
379.191	502.96819
379.408	515.67256
379.625	454.94353
379.842	453.62954
380.059	439.20144
380.276	498.91858
380.493	477.74434
380.71	501.36496
380.927	519.01082
381.143	519.26858
381.36	509.10545
381.577	523.41222
381.794	494.79595
382.011	501.43798
382.228	528.96737
382.444	519.14164
382.661	504.46154
382.878	495.7309
383.095	497.29424
383.311	551.35138
383.528	512.2397
383.745	518.09542
383.962	544.067
384.178	542.47432
384.395	555.6401
384.612	555.57969
384.828	503.36292
385.045	584.12824
385.261	542.10533
385.478	560.37233
385.695	521.02221
385.911	585.03822
386.128	558.53024
386.344	597.87694
386.561	536.72472
386.777	569.88504
386.994	535.23077
387.21	575.17806
387.427	536.9147
387.643	539.94561
387.86	538.36463
388.076	547.74636
388.292	557.65496
388.509	543.38915
388.725	540.91362
388.942	545.02867
389.158	570.83042
389.374	546.93753
389.591	591.79718
389.807	553.37315
390.023	566.98638
390.239	592.92644
390.456	574.8934
390.672	625.37563
390.888	553.29809
391.104	606.79891
391.321	566.85391
391.537	630.3195
391.753	579.45629
391.969	621.0093
392.185	631.63982
392.401	569.99697
392.618	637.92295
392.834	644.30092
393.05	621.07603
393.266	679.90281
393.482	680.60812
393.698	630.02554
393.914	694.85052
394.13	660.73614
394.346	688.29326
394.562	710.83729
394.778	678.75973
394.994	747.28156
395.21	677.93156
395.426	700.07236
395.642	730.78592
395.858	734.8826
396.073	730.42415
396.289	731.81539
396.505	777.51036
396.721	757.25168
396.937	762.28273
397.153	720.88446
397.369	759.96378
397.584	790.52646
397.8	719.12863
398.016	789.21214
398.232	827.71754
398.447	805.49011
398.663	829.45463
398.879	794.19139
399.094	819.88836
399.31	793.93929
399.526	784.17465
399.741	846.43616
399.957	837.50233
400.173	866.12982
400.388	876.48744
400.604	864.70522
400.82	910.63067
401.035	943.2048
401.251	936.56004
401.466	906.42221
401.682	1017.88095
401.897	1009.0314
402.113	953.8428
402.328	1007.15179
402.544	1037.6923
402.759	1000.10439
402.974	1087.76551
403.19	1079.15006
403.405	1177.89453
403.621	1275.14026
403.836	1202.17778
404.051	1226.76006
404.267	1249.98697
404.482	1180.25257
404.697	1291.13573
404.913	1275.37088
405.128	1404.74801
405.343	1343.86713
405.559	1410.8947
405.774	1475.45211
405.989	1500.56221
406.204	1507.19589
406.42	1513.64797
406.635	1575.02642
406.85	1501.77114
407.065	1517.7419
407.28	1665.56647
407.495	1693.48883
407.71	1660.96876
407.926	1640.81804
408.141	1830.28422
408.356	1738.7379
408.571	1818.74355
408.786	1726.8052
409.001	1798.09068
409.216	1837.07851
409.431	1781.15031
409.646	1763.97229
409.861	1818.93569
410.076	1857.91482
410.291	1859.83355
410.506	1932.63298
410.721	1868.3257
410.936	1963.11971
411.15	1896.36995
411.365	1976.15504
411.58	1882.78227
411.795	2010.73746
412.01	2046.76074
412.225	2012.69109
412.439	1982.17073
412.654	2025.00258
412.869	2045.61194
413.084	2083.62425
413.299	2091.02465
413.513	1982.23653
413.728	2044.68254
413.943	2131.48897
414.157	2176.62396
414.372	2146.16738
414.587	2183.26195
414.801	2249.20486
415.016	2247.49117
415.231	2278.93375
415.445	2239.93178
415.66	2300.25395
415.874	2345.69928
416.089	2266.98803
416.304	2474.06446
416.518	2358.58454
416.733	2456.18962
416.947	2370.10179
417.162	2436.222
417.376	2490.26536
417.59	2467.27868
417.805	2454.73458
418.019	2421.12162
418.234	2433.43827
418.448	2403.40466
418.663	2458.70802
418.877	2448.19171
419.091	2646.81669
419.306	2582.34972
419.52	2586.97393
419.734	2532.11828
419.949	2661.68463
420.163	2674.12948
420.377	2544.61637
420.591	2615.79199
420.806	2713.91585
421.02	2607.95697
421.234	2645.30359
421.448	2723.83257
421.663	2671.72574
421.877	2735.11603
422.091	2645.58614
422.305	2590.44601
422.519	2727.12284
422.733	2739.57489
422.947	2715.32636
423.161	2631.72118
423.376	2729.95352
423.59	2854.89483
423.804	2744.01751
424.018	2779.45449
424.232	2760.54892
424.446	2889.37557
424.66	2775.44314
424.874	2844.90386
425.088	2726.43999
425.302	2760.26589
425.515	2911.00325
425.729	2876.56797
425.943	2903.66749
426.157	2966.74182
426.371	2915.41249
426.585	2873.37298
426.799	2930.68627
427.013	3002.76873
427.226	3010.46388
427.44	2829.77678
427.654	2886.88309
427.868	2874.74645
428.081	2916.87486
428.295	2918.00103
428.509	2971.52647
428.723	2925.02636
428.936	3006.7428
429.15	2846.43366
429.364	2936.32737
429.577	2785.91912
429.791	2875.23538
430.005	2961.02691
430.218	3007.94561
430.432	2885.74328
430.645	2873.33183
430.859	2853.85158
431.073	2923.19235
431.286	3066.61708
431.5	3007.41402
431.713	2849.29369
431.927	2950.36574
432.14	2972.40116
432.354	2995.13211
432.567	2952.54145
432.781	3026.24076
432.994	3037.65502
433.207	3042.09982
433.421	3150.11368
433.634	3041.31008
433.848	3107.42123
434.061	3057.23591
434.274	2898.1102
434.488	2937.8761
434.701	2864.72684
434.914	2967.71773
435.127	3015.83501
435.341	3009.28882
435.554	3081.53087
435.767	3216.17992
435.98	3252.17934
436.194	3017.62534
436.407	2979.62332
436.62	3338.53756
436.833	3291.70637
437.046	3184.41385
437.259	3013.42936
437.473	3224.54419
437.686	3343.12945
437.899	3175.46087
438.112	3307.78471
438.325	3189.45052
438.538	3259.04264
438.751	3448.49004
438.964	3382.9776
439.177	3314.14415
439.39	3354.51274
439.603	3529.98364
439.816	3487.85778
440.029	3605.34919
440.242	3716.68084
440.455	3709.0078
440.668	3794.50553
440.881	3536.06289
441.094	3488.49065
441.306	3743.3393
441.519	4003.74965
441.732	3979.13169
441.945	3951.25206
442.158	3803.67725
442.37	3642.192
442.583	3944.06556
442.796	4086.71039
443.009	4039.87845
443.222	3841.87519
443.434	3732.63322
443.647	4024.36818
443.86	4247.04029
444.072	4245.69739
444.285	4155.96249
444.498	4285.27896
444.71	4161.05479
444.923	4208.52444
445.136	4140.65405
445.348	4118.03322
445.561	4192.85102
445.773	4147.55166
445.986	3970.15082
446.198	4313.07444
446.411	4336.91084
446.623	4502.08813
446.836	4465.25505
447.048	4394.91146
447.261	4549.21572
447.473	4506.25847
447.686	4411.29303
447.898	4446.31073
448.11	4699.649
448.323	4789.04705
448.535	4672.11585
448.748	4406.37077
448.96	4478.49457
449.172	4479.7179
449.385	4471.25606
449.597	4545.27251
449.809	4648.70028
450.021	4740.5756
450.234	4743.82941
450.446	4568.96385
450.658	4672.16127
450.87	4638.15581
451.083	4741.84668
451.295	4721.5036
451.507	4847.16768
451.719	4769.49572
451.931	4854.66856
452.143	4745.4003
452.356	4725.45284
452.568	4814.34878
452.78	4852.65566
452.992	4848.95914
453.204	4991.77544
453.416	4911.7761
453.628	4688.19452
453.84	4740.46995
454.052	4839.65568
454.264	5054.48964
454.476	5013.24335
454.688	5241.62304
454.9	5290.49574
455.112	4958.88579
455.324	4843.36203
455.536	5021.2976
455.747	5217.7818
455.959	5125.54165
456.171	5313.00384
456.383	5097.21484
456.595	5021.40091
456.807	4976.44824
457.018	5019.72593
457.23	5102.42477
457.442	5021.73574
457.654	5139.07689
457.865	5122.87594
458.077	4964.59157
458.289	4996.25104
458.501	5066.10041
458.712	5350.45567
458.924	5572.92529
459.136	5270.94452
459.347	5130.46332
459.559	5206.36075
459.77	5473.6327
459.982	5482.79355
460.194	5534.3091
460.405	5211.15289
460.617	5287.16422
460.828	5442.67376
461.04	5588.67139
461.251	5384.32718
461.463	5760.8454
461.674	5719.69082
461.886	5634.20128
462.097	5396.90393
462.309	5617.67146
462.52	5356.81332
462.731	5850.69834
462.943	5534.07731
463.154	5378.55311
463.366	5461.18359
463.577	5629.36813
463.788	5785.58617
464	5929.90045
464.211	5936.98009
464.422	6195.41475
464.634	6009.44158
464.845	5978.2832
465.056	6148.36491
465.267	6169.90562
465.478	5790.58202
465.69	6052.13321
465.901	5990.82133
466.112	6063.77242
466.323	6073.2965
466.534	6247.41664
466.745	6280.13787
466.957	6172.9954
467.168	6346.55579
467.379	6349.66052
467.59	6043.40276
467.801	6049.61945
468.012	6274.14121
468.223	6329.5584
468.434	6236.76413
468.645	6567.77386
468.856	6805.7044
469.067	6496.10072
469.278	6598.21037
469.489	6736.93767
469.7	6464.52227
469.911	6467.63011
470.122	6889.02681
470.333	7011.66173
470.543	6582.52308
470.754	6779.61366
470.965	6759.98795
471.176	6843.903
471.387	7099.2392
471.598	6983.32887
471.808	6890.78342
472.019	7051.93105
472.23	6948.8195
472.441	6894.4769
472.651	7115.96688
472.862	6948.3875
473.073	7397.0059
473.283	7123.66953
473.494	7054.88734
473.705	7093.38044
473.915	7270.6653
474.126	7456.96099
474.337	7411.68993
474.547	7695.23373
474.758	7737.27443
474.968	7658.58624
475.179	7584.77847
475.389	7462.49412
475.6	7748.17861
475.81	7808.23888
476.021	8052.3061
476.231	7995.51673
476.442	8049.86179
476.652	7858.1558
476.863	7934.77333
477.073	7873.15601
477.284	8104.35391
477.494	8060.72204
477.704	8386.52602
477.915	8686.12222
478.125	8278.5144
478.335	8412.44774
478.546	8936.59458
478.756	8687.75489
478.966	8881.38875
479.177	8899.09542
479.387	8950.2939
479.597	8965.71788
479.807	9070.02218
480.018	8895.44947
480.228	9160.16695
480.438	9117.60995
480.648	9338.15808
480.858	9486.04734
481.068	9104.46529
481.279	9347.79884
481.489	9776.83114
481.699	9777.79633
481.909	9637.26536
482.119	10309.25513
482.329	10204.82104
482.539	10160.83903
482.749	10103.19422
482.959	10176.20698
483.169	10608.53519
483.379	10483.88997
483.589	10725.21587
483.799	10580.60628
484.009	10481.33954
484.219	10652.79394
484.429	10960.28743
484.639	10587.53831
484.849	10849.84408
485.059	11184.14915
485.268	11253.77
485.478	11245.76586
485.688	11030.04334
485.898	11017.85736
486.108	11383.08891
486.317	11339.06131
486.527	11446.19652
486.737	11906.2612
486.947	11764.97668
487.156	11958.59815
487.366	11817.37189
487.576	11607.03744
487.785	11626.0173
487.995	11741.83169
488.205	11726.85096
488.414	11928.12504
488.624	11740.48901
488.834	12097.41281
489.043	11776.96453
489.253	11788.38784
489.462	11978.38873
489.672	12343.00712
489.882	12384.65517
490.091	12509.98014
490.301	12369.69281
490.51	12430.34477
490.72	12597.78737
490.929	12659.2931
491.138	12807.79969
491.348	12646.65276
491.557	12894.38218
491.767	12843.53837
491.976	12957.47153
492.185	12791.15097
492.395	12719.32441
492.604	12984.32773
492.813	12968.81801
493.023	13236.1024
493.232	13132.32284
493.441	13068.66347
493.651	13131.69683
493.86	13040.99862
494.069	13269.10414
494.278	13207.13446
494.488	13336.15659
494.697	13505.07439
494.906	13418.86514
495.115	13724.06624
495.324	13494.45993
495.533	13650.62227
495.743	13844.6903
495.952	14137.70143
496.161	13860.15193
496.37	13964.1048
496.579	14166.68491
496.788	14225.35397
496.997	14478.15236
497.206	14073.75611
497.415	14280.53002
497.624	14376.64238
497.833	14513.8132
498.042	14754.29178
498.251	14791.6772
498.46	14803.70198
498.669	14771.67704
498.878	14759.43938
499.087	14918.99351
499.296	15248.07814
499.504	15034.81205
499.713	15025.08173
499.922	15096.33748
500.131	15257.01664
500.34	15440.30294
500.549	15274.59266
500.757	15283.56373
500.966	15418.1815
501.175	15236.01323
501.384	15495.87921
501.592	15434.36117
501.801	15447.21591
502.01	15470.58219
502.218	15547.19066
502.427	15538.08257
502.636	15559.35913
502.844	15876.1188
503.053	15460.5943
503.262	15675.68218
503.47	15590.96637
503.679	15585.35605
503.887	15703.38338
504.096	15848.31659
504.304	15727.99721
504.513	15737.45834
504.721	15691.43323
504.93	15690.48673
505.138	15811.18549
505.347	15738.0888
505.555	15764.47777
505.764	15786.86
505.972	15847.0364
506.18	15801.50999
506.389	15746.03743
506.597	15754.4472
506.806	15895.6569
507.014	16065.19773
507.222	15923.67456
507.431	15817.28841
507.639	15650.60833
507.847	16107.10105
508.055	16078.84792
508.264	16053.58142
508.472	16067.60328
508.68	15833.2002
508.888	16220.88176
509.096	16182.4804
509.305	16043.97929
509.513	15916.77847
509.721	16101.04006
509.929	16126.45738
510.137	16201.55959
510.345	16268.05185
510.553	16441.43928
510.762	16131.15682
510.97	16290.58294
511.178	16452.68804
511.386	16401.51603
511.594	16318.03971
511.802	16418.10037
512.01	16494.8703
512.218	16491.15722
512.426	16650.77881
512.634	16610.56929
512.842	16775.92664
513.049	16689.98506
513.257	16617.78879
513.465	16683.86625
513.673	16778.90636
513.881	16765.90173
514.089	16976.29583
514.297	16869.58147
514.504	16890.89736
514.712	16987.33624
514.92	16916.53814
515.128	17210.85595
515.336	17229.39988
515.543	17037.21463
515.751	17174.84248
515.959	17118.8934
516.166	17019.39862
516.374	17109.54027
516.582	17205.41885
516.789	17045.43089
516.997	17118.73927
517.205	17207.36275
517.412	17258.15201
517.62	17197.7226
517.827	17265.24429
518.035	17260.82037
518.243	17101.36955
518.45	16892.57186
518.658	17029.04572
518.865	17042.91537
519.073	17040.63818
519.28	16897.58063
519.488	17021.01857
519.695	16850.66188
519.902	16830.93669
520.11	16767.76546
520.317	17086.72842
520.525	17001.71066
520.732	16789.36757
520.939	17154.1623
521.147	16790.13297
521.354	16953.0484
521.561	16851.24531
521.769	16867.2673
521.976	16841.34674
522.183	17036.80873
522.391	16707.58518
522.598	17010.18539
522.805	16813.03125
523.012	17019.71665
523.219	16932.31764
523.427	16871.58956
523.634	16953.97079
523.841	17015.0822
524.048	17046.55761
524.255	17134.35385
524.462	17102.10654
524.669	17135.00756
524.877	17202.25766
525.084	17046.5845
525.291	17065.67236
525.498	17281.98104
525.705	17293.42715
525.912	17331.7778
526.119	17276.06806
526.326	17214.04859
526.533	17437.11613
526.74	17530.65105
526.947	17439.69862
527.153	17541.09036
527.36	17515.81667
527.567	17488.98683
527.774	17505.49598
527.981	17631.72309
528.188	17638.18266
528.395	17842.80619
528.602	17539.95426
528.808	17646.81596
529.015	17486.5858
529.222	17702.20814
529.429	17661.47628
529.635	17717.90347
529.842	17703.84382
530.049	17637.92139
530.256	17755.9424
530.462	17956.23476
530.669	17723.10395
530.876	17969.78124
531.082	17813.92629
531.289	17880.47074
531.495	17908.33372
531.702	18180.04876
531.909	18003.77904
532.115	18103.86331
532.322	18089.96342
532.528	17982.64464
532.735	18175.97449
532.941	18170.65234
533.148	18080.34746
533.354	17887.43013
533.561	18089.21609
533.767	18015.75347
533.974	18136.13638
534.18	18205.70446
534.387	18051.83046
534.593	18161.27834
534.799	17854.71686
535.006	18245.60338
535.212	18113.22889
535.418	18175.40409
535.625	18284.01243
535.831	18253.03133
536.037	18023.03928
536.244	18131.25989
536.45	17963.86593
536.656	18100.7545
536.862	18379.89295
537.068	18225.96461
537.275	18345.10881
537.481	18329.10535
537.687	18424.70273
537.893	18467.96198
538.099	18283.1643
538.305	18352.9515
538.512	18471.63832
538.718	18387.25963
538.924	18433.65034
539.13	18336.12545
539.336	18500.45533
539.542	18452.68315
539.748	18451.66068
539.954	18353.89273
540.16	18405.62008
540.366	18586.26543
540.572	18572.53624
540.778	18284.63755
540.984	18441.40043
541.19	18279.36943
541.396	18353.76438
541.602	18541.80077
541.807	18168.36433
542.013	18492.17948
542.219	18178.23717
542.425	18358.01719
542.631	18318.76922
542.837	18254.43669
543.042	18306.62769
543.248	18134.23747
543.454	18121.10361
543.66	18240.80774
543.865	18176.67443
544.071	18048.38739
544.277	18016.70447
544.483	17971.03938
544.688	18155.78953
544.894	18274.39497
545.1	18202.84452
545.305	18321.18185
545.511	18143.21884
545.716	18166.6691
545.922	18287.62207
546.128	18145.67024
546.333	17983.90871
546.539	18179.41077
546.744	18066.5924
546.95	18086.9492
547.155	18108.30567
547.361	18070.62042
547.566	18077.51798
547.772	18073.69852
547.977	18143.39281
548.182	18035.19961
548.388	18136.37651
548.593	18063.91596
548.799	17841.55822
549.004	17978.50501
549.209	18025.55663
549.415	18229.69119
549.62	18002.86744
549.825	18132.84905
550.031	17905.81024
550.236	18000.64635
550.441	18092.83663
550.646	18130.70634
550.852	18160.72596
551.057	18123.16372
551.262	18313.33513
551.467	18059.60147
551.672	18073.19982
551.878	18310.40589
552.083	18073.92418
552.288	18222.42701
552.493	17990.72967
552.698	18251.34547
552.903	18112.54555
553.108	18323.99296
553.313	18272.46323
553.518	18217.8655
553.723	18255.36193
553.928	18336.88065
554.133	18354.38669
554.338	18357.9168
554.543	18341.857
554.748	18331.77436
554.953	18248.7001
555.158	18199.21779
555.363	18409.31113
555.568	18047.84462
555.773	18441.33235
555.978	18432.7714
556.182	18361.03542
556.387	18257.40869
556.592	18364.35989
556.797	18474.27523
557.002	18629.08726
557.206	18437.82375
557.411	18377.15809
557.616	18259.63449
557.821	18602.08914
558.025	18391.84849
558.23	18470.50524
558.435	18616.98777
558.64	18489.98504
558.844	18454.71438
559.049	18146.20719
559.253	18391.5915
559.458	18354.64704
559.663	18424.25507
559.867	18239.86164
560.072	18315.93754
560.276	18451.75817
560.481	18262.11388
560.685	18282.59051
560.89	18350.28194
561.094	18259.80299
561.299	18175.68023
561.503	18159.78482
561.708	18238.04353
561.912	18244.93187
562.117	18024.75656
562.321	18142.91217
562.525	18378.63256
562.73	18181.83121
562.934	18068.43749
563.139	18116.07203
563.343	18264.8284
563.547	18200.66912
563.752	18004.40078
563.956	18244.59613
564.16	18150.29369
564.364	17946.11741
564.569	18026.32939
564.773	18082.53957
