Data from Sun spf750_Subt2__1__10-05-12-078.txt Node

Date: Tue Sep 23 10:05:12 EDT 2025
User: brett
Spectrometer: USB4F03499
Trigger mode: 4
Integration Time (sec): 1.000000E-1
Scans to average: 1
Electric dark correction enabled: true
Nonlinearity correction enabled: true
Boxcar width: 0
XAxis mode: Wavelengths
Number of Pixels in Spectrum: 3648
>>>>>Begin Spectral Data<<<<<
0	-14.61918
0.225	-14.61918
0.449	-14.61918
0.674	-69.94393
0.898	45.26741
1.123	-48.86804
1.347	-16.79969
1.572	61.09945
1.796	40.5696
2.021	15.28566
2.245	26.66549
2.469	-44.36698
2.694	-69.46527
2.918	45.06967
3.143	-39.80255
3.367	22.13898
3.591	8.41143
3.815	49.62578
4.04	779.53316
4.264	993.41027
4.488	1077.50395
4.712	1080.20656
4.936	910.52912
5.161	1105.75649
5.385	1064.39561
5.609	1020.44036
5.833	1065.01652
6.057	1203.12864
6.281	993.86321
6.505	1090.41381
6.729	1069.29445
6.953	1138.80499
7.177	1084.07287
7.401	1007.04794
7.625	1068.4931
7.849	1078.79033
8.073	1154.8312
8.297	1086.74299
8.521	1156.88274
8.744	1110.68091
8.968	1222.30079
9.192	1069.29291
9.416	1136.66778
9.64	1099.59415
9.863	1157.12638
10.087	1066.01073
10.311	1141.22408
10.535	1096.5187
10.758	1139.48211
10.982	1142.55837
11.205	1171.33424
11.429	1166.72666
11.653	1108.81088
11.876	1054.09537
12.1	1074.73451
12.323	1082.61666
12.547	1158.52838
12.77	1212.43353
12.994	1207.37585
13.217	1269.16018
13.441	1207.42242
13.664	1283.10411
13.887	1145.65232
14.111	1296.84685
14.334	1268.63463
14.557	1146.42434
14.781	1227.47886
15.004	1158.16875
15.227	1165.51464
15.451	1263.41738
15.674	1071.87831
15.897	1145.3997
16.12	1252.6761
16.343	1173.44022
16.567	1360.58405
16.79	1308.75792
17.013	1127.98016
17.236	1239.95487
17.459	1333.91364
17.682	1146.82341
17.905	1230.36091
18.128	1267.83269
18.351	1362.78333
18.574	1224.76942
18.797	1449.62038
19.02	1252.4176
19.243	1360.71342
19.466	1260.1146
19.689	1342.16528
19.911	1468.27629
20.134	1382.92116
20.357	1335.75003
20.58	1296.66913
20.803	1417.19416
21.025	1245.7163
21.248	1367.73977
21.471	1395.97118
21.694	1401.67929
21.916	1433.66521
22.139	1492.0596
22.362	1319.50222
22.584	1414.38014
22.807	1506.93076
23.029	1360.12198
23.252	1357.46308
23.475	1542.09664
23.697	1487.1564
23.92	1440.93528
24.142	1537.57549
24.365	1550.08429
24.587	1610.14115
24.809	1498.37109
25.032	1576.73554
25.254	1404.55889
25.477	1522.10574
25.699	1608.38275
25.921	1529.23014
26.144	1612.49175
26.366	1593.88101
26.588	1691.96088
26.81	1647.69944
27.033	1560.80102
27.255	1587.13038
27.477	1719.44556
27.699	1802.62798
27.921	1676.95001
28.144	1732.06415
28.366	1785.54603
28.588	1990.3085
28.81	1850.08477
29.032	1897.11966
29.254	1843.93169
29.476	1892.2966
29.698	1865.65406
29.92	2043.10071
30.142	2159.32326
30.364	2100.08285
30.586	2203.43514
30.808	2195.14708
31.029	2287.90311
31.251	2301.82729
31.473	2382.16771
31.695	2536.07666
31.917	2494.801
32.139	2611.02999
32.36	2501.61127
32.582	2700.64024
32.804	2755.47283
33.026	2804.69629
33.247	2651.42741
33.469	2974.72697
33.691	2885.74172
33.912	3147.13905
34.134	3303.11375
34.355	3295.97765
34.577	3441.68623
34.798	3401.67163
35.02	3572.42901
35.242	3597.24987
35.463	3775.56538
35.684	3983.43189
35.906	4119.94572
36.127	4060.79721
36.349	4067.15083
36.57	4380.79926
36.792	4694.84017
37.013	4920.03957
37.234	5050.35498
37.456	4981.67104
37.677	5376.79824
37.898	5477.29325
38.119	5696.3061
38.341	5785.5455
38.562	6175.3762
38.783	6318.93623
39.004	6418.75798
39.225	6453.1767
39.447	6835.7453
39.668	7369.53998
39.889	7376.78599
40.11	7752.97407
40.331	7970.1769
40.552	8257.95251
40.773	8403.99509
40.994	8963.40252
41.215	9228.31531
41.436	9843.12888
41.657	10029.31417
41.878	10542.15941
42.099	11022.97597
42.32	11602.45196
42.54	11984.45299
42.761	12564.55533
42.982	12951.816
43.203	13688.09083
43.424	14433.94002
43.645	14489.93633
43.865	15149.06896
44.086	15179.12658
44.307	16038.45106
44.527	16625.7387
44.748	17372.78454
44.969	17714.5337
45.189	17616.61809
45.41	18155.35884
45.631	18984.96891
45.851	19122.1035
46.072	19457.80114
46.292	20033.06199
46.513	20526.37612
46.733	21528.58828
46.954	21998.24255
47.174	22892.41294
47.395	23028.84413
47.615	23999.26669
47.836	24658.25166
48.056	25450.32488
48.276	24948.44514
48.497	25177.34784
48.717	26958.60187
48.937	26597.4736
49.158	27515.77206
49.378	27499.20785
49.598	28002.02155
49.818	29181.35315
50.038	29618.53933
50.259	30393.75904
50.479	30885.92077
50.699	32012.30231
50.919	33259.91091
51.139	34159.38146
51.359	34847.25506
51.579	36476.23322
51.799	36093.49924
52.02	37918.53868
52.24	38606.40193
52.46	39433.30017
52.68	41014.42286
52.899	40187.55397
53.119	41970.1759
53.339	45059.11788
53.559	44572.29865
53.779	46386.38208
53.999	48524.40069
54.219	49261.74336
54.439	51185.2049
54.658	51766.49596
54.878	54601.54042
55.098	55364.06743
55.318	55011.98837
55.538	58284.45093
55.757	58640.07118
55.977	59147.67971
56.197	60285.26568
56.416	61972.90542
56.636	63660.49866
56.855	65610.25038
57.075	65525.47589
57.295	65621.72535
57.514	65663.07303
57.734	65559.81429
57.953	65575.85266
58.173	65566.6868
58.392	65603.36758
58.612	65612.54501
58.831	65617.13482
59.051	65555.23351
59.27	65488.89239
59.489	65571.26937
59.709	65585.02141
59.928	65605.66166
60.147	65589.60687
60.367	65614.83982
60.586	65536.91756
60.805	65596.48641
61.024	65578.14458
61.244	65658.47591
61.463	65591.89987
61.682	65568.978
61.901	65557.52381
62.12	65614.83982
62.34	65578.14458
62.559	65582.72895
62.778	65459.20156
62.997	65603.36758
63.216	65646.98633
63.435	65640.09478
63.654	65488.89239
63.873	65601.07367
64.092	65587.31405
64.311	65527.76387
64.53	65566.6868
64.749	65585.02141
64.968	65573.56093
65.187	65669.97009
65.405	65587.31405
65.624	65582.72895
65.843	65562.10494
66.062	65571.26937
66.281	65534.62887
66.499	65658.47591
66.718	65640.09478
66.937	65557.52381
67.156	65573.56093
67.374	65612.54501
67.593	65475.18524
67.812	65582.72895
68.03	65594.19305
68.249	65642.39178
68.467	65612.54501
68.686	65546.0741
68.905	65534.62887
69.123	65704.48032
69.342	65578.14458
69.56	65607.95593
69.779	65681.46887
69.997	65555.23351
70.216	65596.48641
70.434	65571.26937
70.652	65541.49547
70.871	65587.31405
71.089	65614.83982
71.307	65656.17763
71.526	65564.39578
71.744	65621.72535
71.962	65614.83982
72.181	65619.42999
72.399	65612.54501
72.617	65568.978
72.835	65552.94339
73.054	65621.72535
73.272	65598.77995
73.49	65610.25038
73.708	65663.07303
73.926	65653.87953
74.144	65649.28388
74.362	65564.39578
74.58	65598.77995
74.798	65596.48641
75.016	65580.43668
75.234	65612.54501
75.452	65587.31405
75.67	65550.65345
75.888	65624.02089
76.106	65525.47589
76.324	65658.47591
76.542	65663.07303
76.76	65582.72895
76.978	65594.19305
77.196	65626.31661
77.413	65552.94339
77.631	65530.05203
77.849	65637.79796
78.067	65548.36369
78.284	65546.0741
78.502	65603.36758
78.72	65603.36758
78.938	65658.47591
79.155	65640.09478
79.373	65594.19305
79.59	65640.09478
79.808	65603.36758
80.026	65628.61252
80.243	65612.54501
80.461	65502.60589
80.678	65486.60743
80.896	65546.0741
81.113	65575.85266
81.331	65607.95593
81.548	65402.18677
81.766	65541.49547
81.983	65564.39578
82.2	65614.83982
82.418	65669.97009
82.635	65534.62887
82.852	65438.66371
83.07	65585.02141
83.287	65596.48641
83.504	65562.10494
83.722	65488.89239
83.939	65578.14458
84.156	65482.03802
84.373	65635.50132
84.591	65594.19305
84.808	65580.43668
85.025	65541.49547
85.242	65614.83982
85.459	65573.56093
85.676	65585.02141
85.893	65651.58161
86.11	65566.6868
86.327	65568.978
86.544	65580.43668
86.761	65610.25038
86.978	65541.49547
87.195	65575.85266
87.412	65686.06968
87.629	65630.9086
87.846	65591.89987
88.063	65507.17847
88.28	65585.02141
88.497	65594.19305
88.713	65624.02089
88.93	65649.28388
89.147	65610.25038
89.364	65550.65345
89.58	65578.14458
89.797	65550.65345
90.014	65580.43668
90.231	65527.76387
90.447	65605.66166
90.664	65550.65345
90.881	65559.81429
91.097	65514.03868
91.314	65520.90047
91.53	65598.77995
91.747	65568.978
91.963	65633.20487
92.18	65585.02141
92.396	65585.02141
92.613	65571.26937
92.829	65669.97009
93.046	65653.87953
93.262	65644.68896
93.479	65552.94339
93.695	65559.81429
93.911	65594.19305
94.128	65644.68896
94.344	65507.17847
94.56	65546.0741
94.777	65692.97228
94.993	65624.02089
95.209	65518.61303
95.426	65365.75403
95.642	65646.98633
95.858	65607.95593
96.074	65591.89987
96.29	65658.47591
96.506	65587.31405
96.723	65568.978
96.939	65640.09478
97.155	65628.61252
97.371	65578.14458
97.587	65610.25038
97.803	65612.54501
98.019	65603.36758
98.235	65546.0741
98.451	65635.50132
98.667	65488.89239
98.883	65626.31661
99.099	65658.47591
99.315	65630.9086
99.53	65571.26937
99.746	65603.36758
99.962	65637.79796
100.178	65594.19305
100.394	65596.48641
100.61	65663.07303
100.825	65548.36369
101.041	65626.31661
101.257	65573.56093
101.473	65578.14458
101.688	65559.81429
101.904	65617.13482
102.12	65585.02141
102.335	65571.26937
102.551	65617.13482
102.766	65525.47589
102.982	65603.36758
103.198	65624.02089
103.413	65582.72895
103.629	65614.83982
103.844	65607.95593
104.06	65596.48641
104.275	65543.7847
104.49	65562.10494
104.706	65635.50132
104.921	64999.27419
105.137	65582.72895
105.352	65516.32576
105.567	65596.48641
105.783	65573.56093
105.998	65566.6868
106.213	65548.36369
106.429	65633.20487
106.644	65617.13482
106.859	65575.85266
107.074	42839.76898
107.29	23619.68587
107.505	11079.47187
107.72	11528.16926
107.935	11573.03878
108.15	11470.1192
108.365	11465.81
108.58	11781.65578
108.795	11780.83327
109.01	11249.80089
109.226	11677.87584
109.441	11496.15556
109.656	11997.69406
109.871	12195.22411
110.085	11764.07133
110.3	11570.21798
110.515	11916.21244
110.73	11946.9396
110.945	12766.64801
111.16	12408.96113
111.375	13004.31763
111.59	13084.71833
111.804	12685.88171
112.019	12446.25306
112.234	12797.449
112.449	12896.88288
112.663	13165.75915
112.878	13537.72283
113.093	12859.47918
113.308	12726.09948
113.522	13111.2982
113.737	13142.30742
113.951	13293.31781
114.166	13325.40087
114.381	13683.20771
114.595	13766.68713
114.81	13230.40298
115.024	13276.43233
115.239	13789.74743
115.453	14265.55883
115.668	14853.55725
115.882	14004.94772
116.097	14310.08478
116.311	14544.27693
116.525	15331.71948
116.74	15349.48504
116.954	15317.31539
117.169	15062.13749
117.383	15140.84037
117.597	15732.42333
117.811	16107.67605
118.026	15954.15081
118.24	16867.57003
118.454	16656.92239
118.668	16685.54615
118.883	16367.60711
119.097	16756.33048
119.311	16367.48937
119.525	17425.31208
119.739	17091.42466
119.953	16812.20514
120.167	17041.10704
120.381	17782.08298
120.595	18015.39166
120.809	18271.70695
121.023	18590.03676
121.237	19349.71006
121.451	19722.44674
121.665	19480.21213
121.879	19793.4201
122.093	20208.83946
122.307	19564.14929
122.521	20361.75336
122.735	20767.80098
122.949	20857.9063
123.163	21307.46143
123.376	21928.74369
123.59	22793.21764
123.804	22557.44187
124.018	22431.36554
124.231	22831.49462
124.445	23123.09984
124.659	22874.89124
124.872	24020.96806
125.086	23954.22567
125.3	24067.72683
125.513	25784.60104
125.727	26744.31438
125.94	26707.87447
126.154	27723.2026
126.368	28187.33375
126.581	28129.45685
126.795	29231.90242
127.008	31553.04793
127.222	33008.66524
127.435	32647.25307
127.648	34929.35596
127.862	36757.0831
128.075	38896.05663
128.289	41681.06625
128.502	43165.28214
128.715	46004.73034
128.929	49348.65162
129.142	54164.71549
129.355	57972.83438
129.568	63465.15625
129.782	65562.10494
129.995	65507.17847
130.208	65607.95593
130.421	65628.61252
130.634	65621.72535
130.848	65543.7847
131.061	65507.17847
131.274	65548.36369
131.487	65646.98633
131.7	65619.42999
131.913	65546.0741
132.126	65591.89987
132.339	65495.74835
132.552	65406.74396
132.765	65514.03868
132.978	65591.89987
133.191	65614.83982
133.404	65550.65345
133.617	65610.25038
133.83	65562.10494
134.043	65640.09478
134.255	65665.37187
134.468	65564.39578
134.681	65660.77438
134.894	65702.17834
135.107	65630.9086
135.319	65552.94339
135.532	65580.43668
135.745	65546.0741
135.958	65598.77995
136.17	65672.26948
136.383	65575.85266
136.596	65624.02089
136.808	65596.48641
137.021	65534.62887
137.233	65626.31661
137.446	65568.978
137.659	65607.95593
137.871	65459.20156
138.084	65598.77995
138.296	65559.81429
138.509	65594.19305
138.721	65628.61252
138.934	65575.85266
139.146	65562.10494
139.358	65621.72535
139.571	65500.31987
139.783	65504.8921
139.996	65580.43668
140.208	65525.47589
140.42	65532.34036
140.632	65559.81429
140.845	65612.54501
141.057	65672.26948
141.269	65619.42999
141.481	65594.19305
141.694	65640.09478
141.906	65573.56093
142.118	65690.67123
142.33	65566.6868
142.542	65646.98633
142.754	65555.23351
142.967	65679.16875
143.179	65633.20487
143.391	65520.90047
143.603	65612.54501
143.815	65509.46503
144.027	65589.60687
144.239	65482.03802
144.451	65580.43668
144.663	65591.89987
144.875	65516.32576
145.086	65484.32264
145.298	65536.91756
145.51	65614.83982
145.722	65518.61303
145.934	65607.95593
146.146	65612.54501
146.358	65596.48641
146.569	65646.98633
146.781	65562.10494
146.993	65644.68896
147.205	65498.03402
147.416	65598.77995
147.628	65589.60687
147.84	65548.36369
148.051	65596.48641
148.263	65562.10494
148.475	65635.50132
148.686	65601.07367
148.898	65525.47589
149.109	65509.46503
149.321	65637.79796
149.532	65516.32576
149.744	65573.56093
149.955	65550.65345
150.167	65605.66166
150.378	65591.89987
150.59	65621.72535
150.801	65660.77438
151.013	65646.98633
151.224	65509.46503
151.435	65596.48641
151.647	65509.46503
151.858	65564.39578
152.069	65596.48641
152.281	65598.77995
152.492	65568.978
152.703	65603.36758
152.914	65468.33404
153.126	65564.39578
153.337	65568.978
153.548	65665.37187
153.759	65559.81429
153.97	65644.68896
154.181	65628.61252
154.392	65539.20643
154.604	65656.17763
154.815	65619.42999
155.026	65552.94339
155.237	65596.48641
155.448	65488.89239
155.659	65571.26937
155.87	65578.14458
156.081	65557.52381
156.292	65626.31661
156.502	65658.47591
156.713	65555.23351
156.924	65532.34036
157.135	65575.85266
157.346	65591.89987
157.557	65555.23351
157.768	65621.72535
157.978	65663.07303
158.189	65566.6868
158.4	65628.61252
158.611	65566.6868
158.821	65516.32576
159.032	65605.66166
159.243	65536.91756
159.453	65585.02141
159.664	65585.02141
159.875	65546.0741
160.085	65621.72535
160.296	65546.0741
160.507	65605.66166
160.717	65630.9086
160.928	65543.7847
161.138	65748.25333
161.349	65603.36758
161.559	65669.97009
161.77	65601.07367
161.98	65624.02089
162.19	65550.65345
162.401	65605.66166
162.611	65539.20643
162.822	65612.54501
163.032	65605.66166
163.242	65619.42999
163.453	65539.20643
163.663	65642.39178
163.873	65566.6868
164.084	65628.61252
164.294	65640.09478
164.504	65589.60687
164.714	65571.26937
164.924	65573.56093
165.135	65624.02089
165.345	65543.7847
165.555	65582.72895
165.765	65530.05203
165.975	65539.20643
166.185	65587.31405
166.395	65614.83982
166.605	65656.17763
166.815	65644.68896
167.025	65603.36758
167.235	65504.8921
167.445	65702.17834
167.655	65566.6868
167.865	65596.48641
168.075	65580.43668
168.285	65596.48641
168.495	65578.14458
168.705	65514.03868
168.915	65488.89239
169.124	65552.94339
169.334	65555.23351
169.544	65559.81429
169.754	65596.48641
169.964	65550.65345
170.173	65525.47589
170.383	65571.26937
170.593	65578.14458
170.802	65534.62887
171.012	65637.79796
171.222	65601.07367
171.431	65642.39178
171.641	65607.95593
171.851	65663.07303
172.06	65621.72535
172.27	65624.02089
172.479	65557.52381
172.689	65619.42999
172.898	65566.6868
173.108	65610.25038
173.317	65543.7847
173.527	65649.28388
173.736	65653.87953
173.945	65580.43668
174.155	65541.49547
174.364	65543.7847
174.574	65580.43668
174.783	65591.89987
174.992	65530.05203
175.202	65589.60687
175.411	65532.34036
175.62	65619.42999
175.829	65633.20487
176.039	65568.978
176.248	65539.20643
176.457	65591.89987
176.666	65507.17847
176.875	65624.02089
177.084	65552.94339
177.294	65630.9086
177.503	65644.68896
177.712	65502.60589
177.921	65626.31661
178.13	65594.19305
178.339	65681.46887
178.548	65614.83982
178.757	65582.72895
178.966	65543.7847
179.175	65557.52381
179.384	65601.07367
179.593	65578.14458
179.802	65656.17763
180.011	65582.72895
180.219	65603.36758
180.428	65573.56093
180.637	65573.56093
180.846	65543.7847
181.055	65575.85266
181.263	65601.07367
181.472	65498.03402
181.681	65630.9086
181.89	65566.6868
182.098	65500.31987
182.307	65607.95593
182.516	65568.978
182.724	65585.02141
182.933	65548.36369
183.142	65672.26948
183.35	65568.978
183.559	65575.85266
183.767	65591.89987
183.976	65621.72535
184.184	65635.50132
184.393	65562.10494
184.601	65621.72535
184.81	65502.60589
185.018	65626.31661
185.227	65564.39578
185.435	65644.68896
185.644	65548.36369
185.852	65690.67123
186.06	65546.0741
186.269	65546.0741
186.477	65541.49547
186.685	65589.60687
186.894	65500.31987
187.102	65585.02141
187.31	65516.32576
187.518	65589.60687
187.727	65674.56905
187.935	65651.58161
188.143	65591.89987
188.351	65559.81429
188.559	65651.58161
188.768	65514.03868
188.976	65534.62887
189.184	65550.65345
189.392	65548.36369
189.6	65557.52381
189.808	65477.46932
190.016	65619.42999
190.224	65607.95593
190.432	65578.14458
190.64	65582.72895
190.848	65573.56093
191.056	65525.47589
191.264	65564.39578
191.472	65589.60687
191.679	65605.66166
191.887	65598.77995
192.095	65681.46887
192.303	65562.10494
192.511	65612.54501
192.719	65688.37036
192.926	65532.34036
193.134	65688.37036
193.342	65617.13482
193.55	65596.48641
193.757	65589.60687
193.965	65566.6868
194.173	65550.65345
194.38	65656.17763
194.588	65630.9086
194.796	65610.25038
195.003	65534.62887
195.211	65630.9086
195.418	65612.54501
195.626	65679.16875
195.833	65573.56093
196.041	65530.05203
196.248	65589.60687
196.456	65532.34036
196.663	65488.89239
196.871	65619.42999
197.078	65571.26937
197.285	65596.48641
197.493	65571.26937
197.7	65452.35403
197.908	65564.39578
198.115	65605.66166
198.322	65575.85266
198.529	65646.98633
198.737	65665.37187
198.944	65571.26937
199.151	65663.07303
199.358	65628.61252
199.566	65706.78248
199.773	65498.03402
199.98	65594.19305
200.187	65624.02089
200.394	65587.31405
200.601	65466.05065
200.809	65676.86881
201.016	65564.39578
201.223	65557.52381
201.43	65672.26948
201.637	65614.83982
201.844	65619.42999
202.051	65692.97228
202.258	65568.978
202.465	65610.25038
202.672	65681.46887
202.878	65587.31405
203.085	65614.83982
203.292	65568.978
203.499	65539.20643
203.706	65587.31405
203.913	65585.02141
204.12	65646.98633
204.326	65628.61252
204.533	65640.09478
204.74	65530.05203
204.947	65578.14458
205.153	65589.60687
205.36	65573.56093
205.567	65679.16875
205.773	65672.26948
205.98	65550.65345
206.187	65594.19305
206.393	65585.02141
206.6	65607.95593
206.806	65649.28388
207.013	65523.18809
207.22	65530.05203
207.426	65640.09478
207.633	65580.43668
207.839	65514.03868
208.046	65546.0741
208.252	65548.36369
208.458	65543.7847
208.665	65571.26937
208.871	65610.25038
209.078	65502.60589
209.284	65594.19305
209.49	65605.66166
209.697	65607.95593
209.903	65646.98633
210.109	65612.54501
210.316	65546.0741
210.522	65626.31661
210.728	65564.39578
210.934	65368.02979
211.14	65607.95593
211.347	65667.67089
211.553	65552.94339
211.759	65575.85266
211.965	65530.05203
212.171	65552.94339
212.377	65518.61303
212.583	65580.43668
212.789	65617.13482
212.996	65566.6868
213.202	65532.34036
213.408	65573.56093
213.614	65580.43668
213.82	65628.61252
214.025	65612.54501
214.231	65658.47591
214.437	65617.13482
214.643	65514.03868
214.849	65578.14458
215.055	65585.02141
215.261	65642.39178
215.467	65575.85266
215.672	65656.17763
215.878	65516.32576
216.084	65635.50132
216.29	65575.85266
216.496	65500.31987
216.701	65543.7847
216.907	65637.79796
217.113	65578.14458
217.318	65509.46503
217.524	65621.72535
217.73	65633.20487
217.935	65601.07367
218.141	65548.36369
218.346	65566.6868
218.552	65598.77995
218.758	65566.6868
218.963	65555.23351
219.169	65564.39578
219.374	65575.85266
219.58	65575.85266
219.785	65596.48641
219.991	65523.18809
220.196	65676.86881
220.401	65610.25038
220.607	65580.43668
