Data from Sun spf650_Subt2__1__10-02-50-593.txt Node

Date: Tue Sep 23 10:02:50 EDT 2025
User: brett
Spectrometer: USB4F03499
Trigger mode: 4
Integration Time (sec): 1.000000E-1
Scans to average: 1
Electric dark correction enabled: true
Nonlinearity correction enabled: true
Boxcar width: 0
XAxis mode: Wavelengths
Number of Pixels in Spectrum: 3648
>>>>>Begin Spectral Data<<<<<
0	-118.906
0.225	-118.906
0.449	-118.906
0.674	-104.78846
0.898	-26.31118
1.123	88.17686
1.347	8.20543
1.572	-21.60642
1.796	70.1954
2.021	47.16868
2.245	-106.33102
2.469	-7.83578
2.694	-65.07109
2.918	-44.56543
3.143	-33.10116
3.367	21.9482
3.591	42.60558
3.815	338.66985
4.04	12551.55078
4.264	17212.92852
4.488	16934.3439
4.712	17005.31335
4.936	17031.78485
5.161	17016.67239
5.385	16882.11867
5.609	17116.80255
5.833	16830.07752
6.057	16939.10322
6.281	17163.67804
6.505	17226.45096
6.729	16955.17549
6.953	17157.68761
7.177	17426.55813
7.401	16737.66478
7.625	17219.54343
7.849	17155.67477
8.073	17703.36652
8.297	17217.33743
8.521	17281.1718
8.744	17219.41834
8.968	17457.497
9.192	17532.23129
9.416	17514.66945
9.64	17647.12941
9.863	17630.64149
10.087	17751.49709
10.311	17416.43954
10.535	17579.78669
10.758	17587.8052
10.982	17259.46282
11.205	17465.20699
11.429	17518.3964
11.653	17855.70472
11.876	17677.84294
12.1	17901.03001
12.323	17836.36427
12.547	17516.465
12.77	17869.91532
12.994	17589.20256
13.217	18326.22073
13.441	17922.80703
13.664	17880.05533
13.887	18146.45755
14.111	18019.01585
14.334	18224.17014
14.557	18291.83386
14.781	18289.74236
15.004	18219.93043
15.227	18155.31749
15.451	18292.35927
15.674	18124.31844
15.897	18366.46346
16.12	18172.9215
16.343	18331.96023
16.567	18583.14806
16.79	18701.37561
17.013	18710.22416
17.236	18700.05798
17.459	18778.88864
17.682	18745.69076
17.905	19091.52702
18.128	18976.29052
18.351	18970.49344
18.574	18809.75759
18.797	19416.2948
19.02	19272.24546
19.243	19728.45305
19.466	19183.58746
19.689	19831.44862
19.911	20061.10385
20.134	19842.74195
20.357	19862.27974
20.58	19746.00648
20.803	20390.74143
21.025	20163.77134
21.248	20115.56884
21.471	20693.94117
21.694	20553.20714
21.916	20698.86082
22.139	21267.15513
22.362	21234.08539
22.584	21163.69727
22.807	21451.87126
23.029	21879.5109
23.252	22043.0046
23.475	22712.1682
23.697	22677.52167
23.92	23090.73536
24.142	22912.60477
24.365	23666.22649
24.587	23689.12859
24.809	24317.736
25.032	24647.42905
25.254	24844.69009
25.477	25503.57462
25.699	25956.83438
25.921	26273.66363
26.144	26800.74992
26.366	27235.60815
26.588	27438.94381
26.81	28218.24937
27.033	28981.31971
27.255	29534.28054
27.477	30255.08283
27.699	31424.46414
27.921	31757.07084
28.144	32549.13495
28.366	33433.51925
28.588	34626.16077
28.81	35500.24752
29.032	37032.56238
29.254	37896.12901
29.476	38747.89185
29.698	39547.01092
29.92	41332.40234
30.142	43237.38978
30.364	43396.82321
30.586	45474.24534
30.808	46770.58018
31.029	48612.99784
31.251	49259.71773
31.473	50860.36256
31.695	51968.75044
31.917	53280.7734
32.139	54113.48904
32.36	56281.32788
32.582	57783.94182
32.804	57932.1562
33.026	60438.79502
33.247	60932.02564
33.469	62759.89925
33.691	63546.23965
33.912	64832.73425
34.134	64749.98811
34.355	65179.43566
34.577	65595.82539
34.798	65517.9276
35.02	65549.97802
35.242	65570.60041
35.463	65644.04326
35.684	65559.14172
35.906	65683.13601
36.127	65584.35678
36.349	65492.76962
36.57	65579.7706
36.792	65591.2374
37.013	65591.2374
37.234	65554.55951
37.456	65527.08129
37.677	65284.40718
37.898	64369.74513
38.119	62474.86118
38.341	61809.70152
38.562	60702.92491
38.783	59012.39608
39.004	56562.72784
39.225	55521.60651
39.447	54789.5626
39.668	53742.5513
39.889	51498.72478
40.11	50233.47438
40.331	48862.58503
40.552	47181.8625
40.773	45460.8664
40.994	43842.99134
41.215	42076.80526
41.436	40141.294
41.657	38036.64788
41.878	36579.22672
42.099	35844.9827
42.32	34193.21756
42.54	33154.67027
42.761	31966.65281
42.982	31056.8496
43.203	30480.61944
43.424	29373.03486
43.645	28630.77201
43.865	28685.79268
44.086	28151.5066
44.307	27343.34764
44.527	27922.1207
44.748	27245.26594
44.969	26973.1481
45.189	26925.5243
45.41	26668.215
45.631	26747.68853
45.851	26569.14719
46.072	26039.85938
46.292	26258.48529
46.513	26072.236
46.733	26263.91326
46.954	26167.71688
47.174	26301.03402
47.395	26248.11849
47.615	26327.18575
47.836	26124.71311
48.056	26106.12793
48.276	25710.07532
48.497	25820.89013
48.717	25750.08751
48.937	25924.88313
49.158	25956.59733
49.378	25968.5642
49.598	26222.46618
49.818	26253.36782
50.038	25919.71844
50.259	25844.05638
50.479	26007.12133
50.699	25717.96817
50.919	26049.53577
51.139	26059.72507
51.359	25979.24947
51.579	26105.58328
51.799	26433.37221
52.02	25987.6549
52.24	26513.35044
52.46	26336.5769
52.68	26509.53848
52.899	26053.10578
53.119	25994.78146
53.339	26965.2777
53.559	26621.34424
53.779	26329.30657
53.999	26887.88755
54.219	26717.93207
54.439	27211.14891
54.658	26954.1689
54.878	27100.02725
55.098	27367.30583
55.318	27460.33374
55.538	27606.14903
55.757	27601.48162
55.977	27164.48297
56.197	27678.54829
56.416	28000.57352
56.636	28204.23
56.855	28219.00953
57.075	27844.68938
57.295	28518.03124
57.514	28753.13976
57.734	28884.46029
57.953	28747.50881
58.173	28677.15054
58.392	28911.69405
58.612	28545.56199
58.831	28713.32062
59.051	29016.56142
59.27	29627.67252
59.489	29399.85592
59.709	29603.39024
59.928	30352.76962
60.147	29885.54817
60.367	30553.89105
60.586	29971.66429
60.805	30078.18502
61.024	30441.6404
61.244	30779.28634
61.463	30257.33805
61.682	30561.1248
61.901	31182.90528
62.12	31348.51736
62.34	31612.24468
62.559	31761.96058
62.778	31642.52168
62.997	31512.79269
63.216	31785.33384
63.435	32087.1568
63.654	32011.61385
63.873	32571.73654
64.092	33098.24848
64.311	33214.76786
64.53	33634.62012
64.749	32981.32533
64.968	33959.07446
65.187	34266.59372
65.405	33956.43315
65.624	33935.45398
65.843	33841.06095
66.062	34403.66962
66.281	34629.5498
66.499	34919.57417
66.718	35194.66715
66.937	35572.06828
67.156	35259.52043
67.374	35713.37136
67.593	36365.44496
67.812	37006.05493
68.03	37425.38742
68.249	37413.82834
68.467	37180.03143
68.686	37191.8352
68.905	38009.17181
69.123	38542.30135
69.342	38618.3629
69.56	38565.55284
69.779	38946.90326
69.997	39983.62412
70.216	40472.66322
70.434	41086.77598
70.652	41838.83783
70.871	43104.18404
71.089	43748.1848
71.307	44595.65131
71.526	45419.01752
71.744	46408.71599
71.962	48754.20576
72.181	49863.02806
72.399	52844.7251
72.617	53566.0281
72.835	55610.12647
73.054	56916.96432
73.272	59203.75233
73.49	63629.32083
73.708	65653.23676
73.926	65644.04326
74.144	65639.44761
74.362	65554.55951
74.58	65588.94368
74.798	65586.65014
75.016	65570.60041
75.234	65602.70874
75.452	65577.47778
75.67	65540.81718
75.888	65614.18462
76.106	65515.63962
76.324	65648.63964
76.542	65653.23676
76.76	65572.89268
76.978	65584.35678
77.196	65616.48034
77.413	65543.10712
77.631	65520.21576
77.849	65627.96169
78.067	65538.52742
78.284	65536.23783
78.502	65593.53131
78.72	65593.53131
78.938	65648.63964
79.155	65630.25851
79.373	65584.35678
79.59	65630.25851
79.808	65593.53131
80.026	65618.77624
80.243	65602.70874
80.461	65492.76962
80.678	65476.77116
80.896	65536.23783
81.113	65566.01639
81.331	65598.11966
81.548	65392.3505
81.766	65531.6592
81.983	65554.55951
82.2	65605.00355
82.418	65660.13382
82.635	65524.7926
82.852	65428.82744
83.07	65575.18514
83.287	65586.65014
83.504	65552.26867
83.722	65479.05612
83.939	65568.30831
84.156	65472.20175
84.373	65625.66505
84.591	65584.35678
84.808	65570.60041
85.025	65531.6592
85.242	65605.00355
85.459	65563.72466
85.676	65575.18514
85.893	65641.74534
86.11	65556.85053
86.327	65559.14172
86.544	65570.60041
86.761	65600.41411
86.978	65531.6592
87.195	65566.01639
87.412	65676.23341
87.629	65621.07233
87.846	65582.0636
88.063	65497.3422
88.28	65575.18514
88.497	65584.35678
88.713	65614.18462
88.93	65639.44761
89.147	65600.41411
89.364	65540.81718
89.58	65568.30831
89.797	65540.81718
90.014	65570.60041
90.231	65517.9276
90.447	65595.82539
90.664	65540.81718
90.881	65549.97802
91.097	65504.2024
91.314	65511.0642
91.53	65588.94368
91.747	65559.14172
91.963	65623.3686
92.18	65575.18514
92.396	65575.18514
92.613	65561.4331
92.829	65660.13382
93.046	65644.04326
93.262	65634.85269
93.479	65543.10712
93.695	65549.97802
93.911	65584.35678
94.128	65634.85269
94.344	65497.3422
94.56	65536.23783
94.777	65683.13601
94.993	65614.18462
95.209	65508.77676
95.426	65355.91776
95.642	65637.15006
95.858	65598.11966
96.074	65582.0636
96.29	65648.63964
96.506	65577.47778
96.723	65559.14172
96.939	65630.25851
97.155	65618.77624
97.371	65568.30831
97.587	65600.41411
97.803	65602.70874
98.019	65593.53131
98.235	65536.23783
98.451	65625.66505
98.667	65479.05612
98.883	65616.48034
99.099	65648.63964
99.315	65621.07233
99.53	65561.4331
99.746	65593.53131
99.962	65627.96169
100.178	65584.35678
100.394	65586.65014
100.61	65653.23676
100.825	65538.52742
101.041	65616.48034
101.257	65563.72466
101.473	65568.30831
101.688	65549.97802
101.904	65607.29854
102.12	65575.18514
102.335	65561.4331
102.551	65607.29854
102.766	65515.63962
102.982	65593.53131
103.198	65614.18462
103.413	65572.89268
103.629	65605.00355
103.844	65598.11966
104.06	65586.65014
104.275	65533.94843
104.49	65552.26867
104.706	65625.66505
104.921	64989.43792
105.137	65572.89268
105.352	65506.48949
105.567	65586.65014
105.783	65563.72466
105.998	65556.85053
106.213	65538.52742
106.429	65623.3686
106.644	65607.29854
106.859	65566.01639
107.074	65440.23561
107.29	65625.66505
107.505	65591.2374
107.72	65520.21576
107.935	65524.7926
108.15	65556.85053
108.365	65637.15006
108.58	65533.94843
108.795	65527.08129
109.01	65533.94843
109.226	65657.83462
109.441	65419.70404
109.656	65637.15006
109.871	65469.91731
110.085	65538.52742
110.3	65568.30831
110.515	65646.34136
110.73	65483.62658
110.945	65595.82539
111.16	65538.52742
111.375	65543.10712
111.59	65591.2374
111.804	65561.4331
112.019	65563.72466
112.234	65600.41411
112.449	65538.52742
112.663	65577.47778
112.878	65600.41411
113.093	65579.7706
113.308	65492.76962
113.522	65577.47778
113.737	65699.24856
113.951	65547.68754
114.166	65579.7706
114.381	65568.30831
114.595	65591.2374
114.81	65561.4331
115.024	65575.18514
115.239	65547.68754
115.453	65609.59372
115.668	65593.53131
115.882	65540.81718
116.097	65593.53131
116.311	65676.23341
116.525	65568.30831
116.74	65683.13601
116.954	65531.6592
117.169	65579.7706
117.383	65561.4331
117.597	65517.9276
117.811	65577.47778
118.026	65492.76962
118.24	65529.37016
118.454	65582.0636
118.668	65584.35678
118.883	65584.35678
119.097	65566.01639
119.311	65566.01639
119.525	65568.30831
119.739	65572.89268
119.953	65593.53131
120.167	65451.64814
120.381	65602.70874
120.595	65568.30831
120.809	65609.59372
121.023	65554.55951
121.237	65593.53131
121.451	65602.70874
121.665	65598.11966
121.879	65566.01639
122.093	65501.91549
122.307	65673.93292
122.521	65614.18462
122.735	65501.91549
122.949	65598.11966
123.163	65653.23676
123.376	65536.23783
123.59	65515.63962
123.804	65572.89268
124.018	65609.59372
124.231	65621.07233
124.445	65644.04326
124.659	65499.62876
124.872	65481.34126
125.086	65577.47778
125.3	65572.89268
125.513	65554.55951
125.727	65609.59372
125.94	65556.85053
126.154	65577.47778
126.368	65625.66505
126.581	65600.41411
126.795	65609.59372
127.008	65605.00355
127.222	65637.15006
127.435	65625.66505
127.648	65623.3686
127.862	65552.26867
128.075	65616.48034
128.289	65533.94843
128.502	65627.96169
128.715	65563.72466
128.929	65678.53409
129.142	65605.00355
129.355	65575.18514
129.568	65513.35182
129.782	65552.26867
129.995	65497.3422
130.208	65598.11966
130.421	65618.77624
130.634	65611.88908
130.848	65533.94843
131.061	65497.3422
131.274	65538.52742
131.487	65637.15006
131.7	65609.59372
131.913	65536.23783
132.126	65582.0636
132.339	65485.91208
132.552	65396.90769
132.765	65504.2024
132.978	65582.0636
133.191	65605.00355
133.404	65540.81718
133.617	65600.41411
133.83	65552.26867
134.043	65630.25851
134.255	65655.5356
134.468	65554.55951
134.681	65650.93811
134.894	65692.34207
135.107	65621.07233
135.319	65543.10712
135.532	65570.60041
135.745	65536.23783
135.958	65588.94368
136.17	65662.43321
136.383	65566.01639
136.596	65614.18462
136.808	65586.65014
137.021	65524.7926
137.233	65616.48034
137.446	65559.14172
137.659	65598.11966
137.871	65449.36528
138.084	65588.94368
138.296	65549.97802
138.509	65584.35678
138.721	65618.77624
138.934	65566.01639
139.146	65552.26867
139.358	65611.88908
139.571	65490.4836
139.783	65495.05582
139.996	65570.60041
140.208	65515.63962
140.42	65522.50409
140.632	65549.97802
140.845	65602.70874
141.057	65662.43321
141.269	65609.59372
141.481	65584.35678
141.694	65630.25851
141.906	65563.72466
142.118	65680.83496
142.33	65556.85053
142.542	65637.15006
142.754	65545.39724
142.967	65669.33248
143.179	65623.3686
143.391	65511.0642
143.603	65602.70874
143.815	65499.62876
144.027	65579.7706
144.239	65472.20175
144.451	65570.60041
144.663	65582.0636
144.875	65506.48949
145.086	65474.48637
145.298	65527.08129
145.51	65605.00355
145.722	65508.77676
145.934	65598.11966
146.146	65602.70874
146.358	65586.65014
146.569	65637.15006
146.781	65552.26867
146.993	65634.85269
147.205	65488.19775
147.416	65588.94368
147.628	65579.7706
147.84	65538.52742
148.051	65586.65014
148.263	65552.26867
148.475	65625.66505
148.686	65591.2374
148.898	65515.63962
149.109	65499.62876
149.321	65627.96169
149.532	65506.48949
149.744	65563.72466
149.955	65540.81718
150.167	65595.82539
150.378	65582.0636
150.59	65611.88908
150.801	65650.93811
151.013	65637.15006
151.224	65499.62876
151.435	65586.65014
151.647	65499.62876
151.858	65554.55951
152.069	65586.65014
152.281	65588.94368
152.492	65559.14172
152.703	65593.53131
152.914	65458.49777
153.126	65554.55951
153.337	65559.14172
153.548	65655.5356
153.759	65549.97802
153.97	65634.85269
154.181	65618.77624
154.392	65529.37016
154.604	65646.34136
154.815	65609.59372
155.026	65543.10712
155.237	65586.65014
155.448	65479.05612
155.659	65561.4331
155.87	65568.30831
156.081	65547.68754
156.292	65616.48034
156.502	65648.63964
156.713	65545.39724
156.924	65522.50409
157.135	65566.01639
157.346	65582.0636
157.557	65545.39724
157.768	65611.88908
157.978	65653.23676
158.189	65556.85053
158.4	65618.77624
158.611	65556.85053
158.821	65506.48949
159.032	65595.82539
159.243	65527.08129
159.453	65575.18514
159.664	65575.18514
159.875	65536.23783
160.085	65611.88908
160.296	65536.23783
160.507	65595.82539
160.717	65621.07233
160.928	65533.94843
161.138	65738.41706
161.349	65593.53131
161.559	65660.13382
161.77	65591.2374
161.98	65614.18462
162.19	65540.81718
162.401	65595.82539
162.611	65529.37016
162.822	65602.70874
163.032	65595.82539
163.242	65609.59372
163.453	65529.37016
163.663	65632.55551
163.873	65556.85053
164.084	65618.77624
164.294	65630.25851
164.504	65579.7706
164.714	65561.4331
164.924	65563.72466
165.135	65614.18462
165.345	65533.94843
165.555	65572.89268
165.765	65520.21576
165.975	65529.37016
166.185	65577.47778
166.395	65605.00355
166.605	65646.34136
166.815	65634.85269
167.025	65593.53131
167.235	65495.05582
167.445	65692.34207
167.655	65556.85053
167.865	65586.65014
168.075	65570.60041
168.285	65586.65014
168.495	65568.30831
168.705	65504.2024
168.915	65479.05612
169.124	65543.10712
169.334	65545.39724
169.544	65549.97802
169.754	65586.65014
169.964	65540.81718
170.173	65515.63962
170.383	65561.4331
170.593	65568.30831
170.802	65524.7926
171.012	65627.96169
171.222	65591.2374
171.431	65632.55551
171.641	65598.11966
171.851	65653.23676
172.06	65611.88908
172.27	65614.18462
172.479	65547.68754
172.689	65609.59372
172.898	65556.85053
173.108	65600.41411
173.317	65533.94843
173.527	65639.44761
173.736	65644.04326
173.945	65570.60041
174.155	65531.6592
174.364	65533.94843
174.574	65570.60041
174.783	65582.0636
174.992	65520.21576
175.202	65579.7706
175.411	65522.50409
175.62	65609.59372
175.829	65623.3686
176.039	65559.14172
176.248	65529.37016
176.457	65582.0636
176.666	65497.3422
176.875	65614.18462
177.084	65543.10712
177.294	65621.07233
177.503	65634.85269
177.712	65492.76962
177.921	65616.48034
178.13	65584.35678
178.339	65671.6326
178.548	65605.00355
178.757	65572.89268
178.966	65533.94843
179.175	65547.68754
179.384	65591.2374
179.593	65568.30831
179.802	65646.34136
180.011	65572.89268
180.219	65593.53131
180.428	65563.72466
180.637	65563.72466
180.846	65533.94843
181.055	65566.01639
181.263	65591.2374
181.472	65488.19775
181.681	65621.07233
181.89	65556.85053
182.098	65490.4836
182.307	65598.11966
182.516	65559.14172
182.724	65575.18514
182.933	65538.52742
183.142	65662.43321
183.35	65559.14172
183.559	65566.01639
183.767	65582.0636
183.976	65611.88908
184.184	65625.66505
184.393	65552.26867
184.601	65611.88908
184.81	65492.76962
185.018	65616.48034
185.227	65554.55951
185.435	65634.85269
185.644	65538.52742
185.852	65680.83496
186.06	65536.23783
186.269	65536.23783
186.477	65531.6592
186.685	65579.7706
186.894	65490.4836
187.102	65575.18514
187.31	65506.48949
187.518	65579.7706
187.727	65664.73278
187.935	65641.74534
188.143	65582.0636
188.351	65549.97802
188.559	65641.74534
188.768	65504.2024
188.976	65524.7926
189.184	65540.81718
189.392	65538.52742
189.6	65547.68754
189.808	65467.63305
190.016	65609.59372
190.224	65598.11966
190.432	65568.30831
190.64	65572.89268
190.848	65563.72466
191.056	65515.63962
191.264	65554.55951
191.472	65579.7706
191.679	65595.82539
191.887	65588.94368
192.095	65671.6326
192.303	65552.26867
192.511	65602.70874
192.719	65678.53409
192.926	65522.50409
193.134	65678.53409
193.342	65607.29854
193.55	65586.65014
193.757	65579.7706
193.965	65556.85053
194.173	65540.81718
194.38	65646.34136
194.588	65621.07233
194.796	65600.41411
195.003	65524.7926
195.211	65621.07233
195.418	65602.70874
195.626	65669.33248
195.833	65563.72466
196.041	65520.21576
196.248	65579.7706
196.456	65522.50409
196.663	65479.05612
196.871	65609.59372
197.078	65561.4331
197.285	65586.65014
197.493	65561.4331
197.7	65442.51776
197.908	65554.55951
198.115	65595.82539
198.322	65566.01639
198.529	65637.15006
198.737	65655.5356
198.944	65561.4331
199.151	65653.23676
199.358	65618.77624
199.566	65696.94621
199.773	65488.19775
199.98	65584.35678
200.187	65614.18462
200.394	65577.47778
200.601	65456.21438
200.809	65667.03254
201.016	65554.55951
201.223	65547.68754
201.43	65662.43321
201.637	65605.00355
201.844	65609.59372
202.051	65683.13601
202.258	65559.14172
202.465	65600.41411
202.672	65671.6326
202.878	65577.47778
203.085	65605.00355
203.292	65559.14172
203.499	65529.37016
203.706	65577.47778
203.913	65575.18514
204.12	65637.15006
204.326	65618.77624
204.533	65630.25851
204.74	65520.21576
204.947	65568.30831
205.153	65579.7706
205.36	65563.72466
205.567	65669.33248
205.773	65662.43321
205.98	65540.81718
206.187	65584.35678
206.393	65575.18514
206.6	65598.11966
206.806	65639.44761
207.013	65513.35182
207.22	65520.21576
207.426	65630.25851
207.633	65570.60041
207.839	65504.2024
208.046	65536.23783
208.252	65538.52742
208.458	65533.94843
208.665	65561.4331
208.871	65600.41411
209.078	65492.76962
209.284	65584.35678
209.49	65595.82539
209.697	65598.11966
209.903	65637.15006
210.109	65602.70874
210.316	65536.23783
210.522	65616.48034
210.728	65554.55951
210.934	65358.19352
211.14	65598.11966
211.347	65657.83462
211.553	65543.10712
211.759	65566.01639
211.965	65520.21576
212.171	65543.10712
212.377	65508.77676
212.583	65570.60041
212.789	65607.29854
212.996	65556.85053
213.202	65522.50409
213.408	65563.72466
213.614	65570.60041
213.82	65618.77624
214.025	65602.70874
214.231	65648.63964
214.437	65607.29854
214.643	65504.2024
214.849	65568.30831
215.055	65575.18514
215.261	65632.55551
215.467	65566.01639
215.672	65646.34136
215.878	65506.48949
216.084	65625.66505
216.29	65566.01639
216.496	65490.4836
216.701	65533.94843
216.907	65627.96169
217.113	65568.30831
217.318	65499.62876
217.524	65611.88908
217.73	65623.3686
217.935	65591.2374
218.141	65538.52742
218.346	65556.85053
218.552	65588.94368
218.758	65556.85053
218.963	65545.39724
219.169	65554.55951
