Data from Subt2__2__22-17-14-405.txt Node

Date: Tue Oct 07 22:17:14 EDT 2025
User: brett
Spectrometer: USB4F03499
Trigger mode: 4
Integration Time (sec): 1.285500E0
Scans to average: 1
Electric dark correction enabled: true
Nonlinearity correction enabled: true
Boxcar width: 0
XAxis mode: Wavelengths
Number of Pixels in Spectrum: 3648
>>>>>Begin Spectral Data<<<<<
345.386	-358.72367
345.605	-358.72367
345.824	-358.72367
346.044	-368.98962
346.263	-374.95869
346.482	-227.27565
346.701	-202.43197
346.92	195.8717
347.139	138.66071
347.358	-111.61223
347.577	-126.17034
347.796	196.1546
348.015	148.89677
348.234	-189.82812
348.453	-126.4171
348.672	147.82455
348.891	151.35736
349.11	-14.40838
349.329	11.5525
349.548	96.07407
349.767	195.73135
349.986	358.12749
350.205	-157.17516
350.424	89.39138
350.643	119.72913
350.862	-114.05632
351.08	487.00811
351.299	258.85233
351.518	214.0523
351.737	-52.8184
351.956	-64.14654
352.174	233.23755
352.393	198.36826
352.612	-195.53643
352.831	-75.43519
353.049	202.92452
353.268	183.56552
353.487	102.74143
353.705	-119.8472
353.924	152.49362
354.143	170.22058
354.361	-177.30685
354.58	-107.12892
354.798	211.96353
355.017	228.5534
355.236	-136.76833
355.454	-183.22637
355.673	202.88582
355.891	387.79155
356.11	-162.60489
356.328	-21.20123
356.547	216.26149
356.765	157.73571
356.984	-27.94525
357.202	-143.45664
357.42	111.80456
357.639	230.63672
357.857	-164.78966
358.076	-146.55035
358.294	252.14487
358.512	178.9999
358.731	350.11125
358.949	-171.64764
359.167	224.95448
359.386	1124.4693
359.604	-118.50992
359.822	-5.36219
360.04	188.97018
360.259	124.16522
360.477	-241.91283
360.695	-50.56075
360.913	311.06759
361.131	629.64963
361.35	48.71884
361.568	-119.51238
361.786	291.14348
362.004	258.47236
362.222	-160.18556
362.44	73.4895
362.658	232.03706
362.876	492.39593
363.094	-9.87121
363.312	-48.26159
363.53	535.5936
363.749	265.47758
363.967	14.93746
364.184	-137.61099
364.402	222.86744
364.62	183.62122
364.838	-144.73432
365.056	-15.53693
365.274	172.40587
365.492	227.32991
365.71	-123.01123
365.928	36.36913
366.146	405.0056
366.364	417.16119
366.581	52.08125
366.799	-39.20282
367.017	357.14573
367.235	188.32838
367.453	-34.71312
367.67	-105.86388
367.888	222.30618
368.106	589.78705
368.323	2084.60321
368.541	121.89412
368.759	238.60647
368.977	849.44994
369.194	236.1708
369.412	267.44335
369.629	375.86749
369.847	189.89746
370.065	297.79254
370.282	70.16313
370.5	603.47254
370.717	642.81247
370.935	408.19498
371.152	143.30839
371.37	524.84627
371.588	618.53235
371.805	188.09906
372.022	461.31163
372.24	379.18194
372.457	560.79263
372.675	203.85243
372.892	198.21749
373.11	724.16795
373.327	383.61531
373.544	330.37134
373.762	384.68041
373.979	864.24708
374.196	950.56525
374.414	503.65607
374.631	773.82346
374.848	979.33225
375.066	491.99174
375.283	226.17596
375.5	215.51895
375.717	958.59277
375.935	797.84202
376.152	722.84358
376.369	463.39689
376.586	569.13477
376.803	1096.53849
377.02	717.56287
377.238	506.8272
377.455	673.41363
377.672	736.85664
377.889	479.1481
378.106	269.97266
378.323	603.09139
378.54	669.93054
378.757	523.83489
378.974	409.46015
379.191	1098.68349
379.408	815.29506
379.625	505.15522
379.842	531.65582
380.059	671.93593
380.276	908.51485
380.493	494.83272
380.71	793.95168
380.927	990.91352
381.143	1042.02574
381.36	717.30496
381.577	582.96004
381.794	868.93938
382.011	1069.67679
382.228	681.24335
382.444	784.98367
382.661	943.28502
382.878	981.17889
383.095	767.96037
383.311	879.71703
383.528	1101.09172
383.745	794.54137
383.962	683.5748
384.178	662.73055
384.395	1015.025
384.612	1059.74059
384.828	924.4434
385.045	778.36733
385.261	985.00533
385.478	1121.72123
385.695	666.81009
385.911	808.72672
386.128	1074.68839
386.344	1149.97086
386.561	702.72685
386.777	944.81269
386.994	1118.87551
387.21	1514.19483
387.427	843.8378
387.643	705.94737
387.86	1067.12398
388.076	1084.95621
388.292	969.6229
388.509	776.54461
388.725	1208.54124
388.942	1221.21724
389.158	732.16209
389.374	948.93209
389.591	1095.60123
389.807	1066.40178
390.023	865.95924
390.239	731.84924
390.456	1163.82774
390.672	1198.69037
390.888	823.2241
391.104	1256.69133
391.321	1213.77233
391.537	1147.95204
391.753	934.12051
391.969	992.00637
392.185	1234.51325
392.401	1286.78098
392.618	984.35869
392.834	1193.40862
393.05	1361.33073
393.266	1311.67202
393.482	1279.44273
393.698	1019.42655
393.914	1403.88063
394.13	1399.19328
394.346	1200.09
394.562	1179.96325
394.778	1283.34931
394.994	1490.1977
395.21	1231.04983
395.426	1256.28861
395.642	1388.29772
395.858	1384.4565
396.073	1158.72019
396.289	1249.83683
396.505	1573.71323
396.721	1624.5939
396.937	1262.35144
397.153	1165.01213
397.369	1532.38827
397.584	1577.62344
397.8	1105.10181
398.016	1349.8641
398.232	1741.88669
398.447	1524.81505
398.663	1392.26246
398.879	1164.88195
399.094	1580.02192
399.31	1760.02837
399.526	1488.08897
399.741	1305.90043
399.957	1671.84362
400.173	1555.08167
400.388	1393.15805
400.604	1263.27958
400.82	1596.6781
401.035	1662.94275
401.251	1382.52378
401.466	1359.27397
401.682	1741.35136
401.897	1758.62008
402.113	1542.4083
402.328	1566.93179
402.544	1893.9595
402.759	1855.16921
402.974	1753.31667
403.19	1803.23242
403.405	2159.3339
403.621	2118.22542
403.836	1988.28753
404.051	1880.84294
404.267	2193.38205
404.482	2407.03577
404.697	2126.07111
404.913	1920.82405
405.128	2371.36862
405.343	2317.91808
405.559	2092.77155
405.774	2214.77498
405.989	2420.5673
406.204	2424.25849
406.42	2442.48511
406.635	2349.9231
406.85	2524.72152
407.065	2623.65594
407.28	2291.06265
407.495	2458.83078
407.71	2898.73974
407.926	2698.4452
408.141	2464.23326
408.356	2761.40453
408.571	2771.47011
408.786	2599.99746
409.001	2530.62696
409.216	2590.43976
409.431	2895.18837
409.646	2973.37225
409.861	2844.61705
410.076	2808.37264
410.291	2964.77221
410.506	2964.31606
410.721	2552.59978
410.936	2682.48208
411.15	2826.82554
411.365	2889.66814
411.58	2833.28246
411.795	2765.38794
412.01	3087.50467
412.225	3133.34922
412.439	2836.48599
412.654	2797.41469
412.869	3076.24219
413.084	3056.88098
413.299	2649.49004
413.513	2685.60253
413.728	3050.22976
413.943	3130.31717
414.157	2838.81643
414.372	2807.48622
414.587	3182.50043
414.801	3343.04749
415.016	2938.95152
415.231	3085.67277
415.445	3214.40285
415.66	3289.82913
415.874	3010.00011
416.089	3001.42507
416.304	3509.74025
416.518	3539.28004
416.733	3345.74422
416.947	3064.03023
417.162	3504.32445
417.376	3492.24322
417.59	3418.2671
417.805	3372.89839
418.019	3575.31053
418.234	3463.45218
418.448	3395.56783
418.663	3275.70421
418.877	3562.52992
419.091	3589.74275
419.306	3420.17772
419.52	3476.81936
419.734	3776.09618
419.949	3960.98552
420.163	3568.45124
420.377	3276.58005
420.591	3712.91156
420.806	4010.76055
421.02	3412.23467
421.234	3470.77947
421.448	3825.04275
421.663	3707.52182
421.877	3468.62945
422.091	3410.89528
422.305	3857.59393
422.519	3895.79951
422.733	3771.12815
422.947	3561.03274
423.161	3814.55913
423.376	3715.23187
423.59	3877.56503
423.804	3611.93978
424.018	3934.34494
424.232	3895.79865
424.446	3825.39936
424.66	3811.17221
424.874	3751.58691
425.088	3791.98841
425.302	4872.2507
425.515	3974.02387
425.729	4143.33315
425.943	4107.03892
426.157	3837.0627
426.371	3856.40491
426.585	4069.49926
426.799	4001.29604
427.013	4134.8248
427.226	4005.10436
427.44	4052.03708
427.654	4412.5924
427.868	4388.00935
428.081	3927.4671
428.295	4165.31415
428.509	4116.37226
428.723	3848.38839
428.936	3865.0573
429.15	3992.5736
429.364	4461.27885
429.577	3893.242
429.791	3941.81043
430.005	4418.97435
430.218	4115.14108
430.432	3903.56099
430.645	3829.75576
430.859	4175.65333
431.073	4264.9907
431.286	3956.78651
431.5	4083.86939
431.713	4122.5319
431.927	4118.01546
432.14	3998.70558
432.354	3918.36022
432.567	4208.6571
432.781	4180.48369
432.994	4107.44874
433.207	4050.52212
433.421	4246.00832
433.634	4385.38365
433.848	4622.78085
434.061	4119.06721
434.274	4208.7224
434.488	4115.34666
434.701	4344.48538
434.914	4121.72873
435.127	4451.16223
435.341	4661.30957
435.554	4077.49159
435.767	4287.31837
435.98	4449.93028
436.194	4374.51425
436.407	4155.96703
436.62	4508.44322
436.833	4686.9806
437.046	4472.98144
437.259	4328.12538
437.473	4640.64004
437.686	4659.90547
437.899	4753.93577
438.112	4543.16165
438.325	4258.45589
438.538	4526.03712
438.751	4890.53756
438.964	4355.13921
439.177	4882.76169
439.39	4734.06209
439.603	5179.05442
439.816	4744.37303
440.029	4901.59676
440.242	5546.84602
440.455	5564.35292
440.668	5107.29747
440.881	4787.72363
441.094	5125.006
441.306	5273.93665
441.519	5465.47414
441.732	5341.21124
441.945	5583.22316
442.158	5356.81149
442.37	5138.92466
442.583	5494.39606
442.796	5717.68497
443.009	5823.43732
443.222	5466.55339
443.434	5193.17272
443.647	5593.49733
443.86	6140.78103
444.072	6049.35716
444.285	5668.27302
444.498	6206.41487
444.71	5844.05653
444.923	5876.24587
445.136	5605.08765
445.348	5858.73258
445.561	5776.74523
445.773	5872.0657
445.986	5595.75348
446.198	6172.62183
446.411	5946.2573
446.623	6077.51664
446.836	5839.72158
447.048	6183.04859
447.261	6358.23562
447.473	6138.63101
447.686	6058.60255
447.898	6441.24136
448.11	6617.33385
448.323	9704.82985
448.535	6441.85751
448.748	6486.97239
448.96	6472.99844
449.172	6371.65669
449.385	6054.38308
449.597	6541.58167
449.809	6480.76533
450.021	6448.49497
450.234	6628.52144
450.446	6470.12289
450.658	6462.0288
450.87	6198.74123
451.083	6572.62488
451.295	6638.0276
451.507	6534.30862
451.719	6422.93592
451.931	6589.53008
452.143	6797.94118
452.356	6617.43727
452.568	6424.94167
452.78	6667.86966
452.992	6748.62889
453.204	6905.61704
453.416	6519.65778
453.628	6360.62222
453.84	6961.51791
454.052	6794.87582
454.264	6817.86742
454.476	6676.57272
454.688	7102.1353
454.9	7192.28904
455.112	6735.06891
455.324	6543.6487
455.536	7069.68466
455.747	7142.7921
455.959	6995.91749
456.171	6921.30118
456.383	6856.54339
456.595	7108.60983
456.807	6649.50757
457.018	6629.17953
457.23	7018.45969
457.442	6942.45488
457.654	6958.36734
457.865	6778.56895
458.077	7204.40767
458.289	6627.96872
458.501	6752.0141
458.712	6928.76737
458.924	7780.40485
459.136	7043.18517
459.347	6699.95377
459.559	6812.71787
459.77	7297.37174
459.982	7282.61974
460.194	7090.852
460.405	6772.07685
460.617	7239.82491
460.828	7402.49859
461.04	7229.46162
461.251	6889.61941
461.463	7986.31563
461.674	7602.20018
461.886	7145.55622
462.097	6976.33269
462.309	7611.45923
462.52	7274.54624
462.731	7708.98794
462.943	7386.22274
463.154	7233.9027
463.366	7531.78261
463.577	7490.74618
463.788	7523.41725
464	7910.00698
464.211	7984.45777
464.422	8221.85847
464.634	7969.88372
464.845	8025.87878
465.056	8206.5632
465.267	7986.17836
465.478	7514.78525
465.69	8210.94386
465.901	8054.72323
466.112	7964.94771
466.323	7934.81331
466.534	8416.64714
466.745	8681.43421
466.957	8267.7579
467.168	7942.31055
467.379	8419.17108
467.59	8095.76212
467.801	7850.11257
468.012	8198.12522
468.223	8393.69738
468.434	8299.85103
468.645	8266.72628
468.856	8653.06147
469.067	8703.08881
469.278	8875.59437
469.489	8673.70371
469.7	8126.24369
469.911	8651.51117
470.122	8985.87759
470.333	9172.062
470.543	8552.53682
470.754	9235.42623
470.965	9170.90137
471.176	9010.45885
471.387	9098.60386
471.598	8850.70487
471.808	8942.39339
472.019	9016.32837
472.23	8969.61087
472.441	9094.69046
472.651	9457.54758
472.862	8972.58995
473.073	9297.68135
473.283	9521.05437
473.494	9397.51872
473.705	9166.52171
473.915	9584.75613
474.126	10001.69072
474.337	9552.57496
474.547	9703.88884
474.758	9567.78751
474.968	10002.29186
475.179	9958.31395
475.389	9921.38471
475.6	9830.65645
475.81	10427.0326
476.021	10333.55287
476.231	10361.6505
476.442	10161.19359
476.652	10225.32919
476.863	10403.1288
477.073	9944.28698
477.284	10168.26654
477.494	10533.82688
477.704	11011.04156
477.915	11050.76576
478.125	10597.86967
478.335	11296.22125
478.546	11606.87805
478.756	11010.04993
478.966	11111.80477
479.177	11308.32449
479.387	11630.9354
479.597	11416.3664
479.807	11542.37586
480.018	11778.0669
480.228	11803.94182
480.438	11541.93202
480.648	11844.17179
480.858	12570.23314
481.068	11968.37579
481.279	12069.65873
481.489	12536.17684
481.699	12398.31486
481.909	12354.26967
482.119	13144.6681
482.329	12789.91015
482.539	13277.10173
482.749	12962.77543
482.959	12942.86983
483.169	13357.07488
483.379	13505.73525
483.589	13747.95588
483.799	13353.28221
484.009	13286.65108
484.219	13631.50978
484.429	13910.47931
484.639	13404.70859
484.849	13659.43725
485.059	14189.88266
485.268	14437.41619
485.478	14058.07475
485.688	14201.03259
485.898	14468.67209
486.108	14658.18762
486.317	14834.98751
486.527	14573.82937
486.737	15381.67952
486.947	14917.42041
487.156	15130.10606
487.366	14726.31494
487.576	14994.01746
487.785	15083.37766
487.995	14756.17479
488.205	14988.43327
488.414	15089.6093
488.624	15318.88866
488.834	14920.30515
489.043	14932.37038
489.253	15178.94144
489.462	15319.3571
489.672	15496.11529
489.882	15462.25675
490.091	15767.30118
490.301	15707.7775
490.51	15426.21684
490.72	15677.89443
490.929	15966.51651
491.138	16311.25475
491.348	15784.44557
491.557	15695.30119
491.767	16221.23554
491.976	15981.13401
492.185	15788.66183
492.395	15803.99555
492.604	16262.47578
492.813	16326.92247
493.023	16077.85427
493.232	15934.03214
493.441	16223.7659
493.651	16408.20691
493.86	16011.74568
494.069	16318.91268
494.278	16617.62515
494.488	16524.39413
494.697	16457.76108
494.906	16390.34115
495.115	16780.87944
495.324	16450.85206
495.533	16547.96401
495.743	16931.87257
495.952	17468.06426
496.161	17670.29026
496.37	17293.06495
496.579	17536.01514
496.788	17960.80498
496.997	18145.77935
497.206	17687.00674
497.415	17939.46636
497.624	18029.20214
497.833	18303.32763
498.042	18056.37733
498.251	18614.69696
498.46	18316.44322
498.669	18486.45515
498.878	18271.49344
499.087	18104.31121
499.296	18771.27986
499.504	18824.21424
499.713	18348.53167
499.922	18307.19358
500.131	18740.64133
500.34	19088.72206
500.549	18448.74978
500.757	18569.43671
500.966	18969.2714
501.175	18822.93733
501.384	19052.3735
501.592	18870.7971
501.801	19376.24087
502.01	19297.78389
502.218	18918.33301
502.427	19152.44271
502.636	19342.7312
502.844	19226.14773
503.053	19209.60422
503.262	18958.88686
503.47	19326.79394
503.679	19310.45736
503.887	19066.48756
504.096	19139.46701
504.304	19218.95443
504.513	19317.31293
504.721	19567.17789
504.93	19100.9093
505.138	19570.98554
505.347	19497.06663
505.555	19215.05242
505.764	19239.50136
505.972	19493.87068
506.18	19131.89289
506.389	19405.92747
506.597	19235.3743
506.806	19467.09531
507.014	19418.38807
507.222	19311.79773
507.431	19188.51562
507.639	19119.11123
507.847	19521.31106
508.055	19521.55323
508.264	19373.16788
508.472	19921.96979
508.68	19403.67276
508.888	19581.21306
509.096	19365.26935
509.305	19798.25173
509.513	19387.54037
509.721	19550.53289
509.929	19363.34215
510.137	19560.11469
510.345	19550.68784
510.553	19569.82493
510.762	19414.36397
510.97	19602.34233
511.178	19661.30456
511.386	20147.13913
511.594	19774.35067
511.802	19903.98771
512.01	19882.90756
512.218	20022.16683
512.426	20111.19335
512.634	20477.86446
512.842	20307.13167
513.049	20180.96931
513.257	19910.13693
513.465	20271.26473
513.673	20388.44111
513.881	20289.17018
514.089	20223.27188
514.297	20597.83658
514.504	20430.2196
514.712	20624.93777
514.92	20509.29102
515.128	20853.82617
515.336	20538.18113
515.543	20560.06726
515.751	20590.627
515.959	20747.75245
516.166	20259.41343
516.374	20613.57553
516.582	20632.39559
516.789	20853.03143
516.997	20679.66253
517.205	20449.48659
517.412	20726.41866
517.62	21053.03613
517.827	20819.42486
518.035	20717.72868
518.243	20565.86791
518.45	20685.3475
518.658	20292.25197
518.865	20607.22696
519.073	20368.49504
519.28	21018.87647
519.488	20395.48118
519.695	20273.86031
519.902	20157.60074
520.11	20477.609
520.317	20411.88693
520.525	20431.56189
520.732	20251.18124
520.939	20339.1438
521.147	20260.34552
521.354	20276.06375
521.561	19975.87704
521.769	20303.92092
521.976	20001.73827
522.183	20218.19845
522.391	19692.80826
522.598	19929.76166
522.805	20312.4793
523.012	20104.19106
523.219	20233.86378
523.427	20310.8207
523.634	20356.28456
523.841	20364.55826
524.048	20109.73956
524.255	20507.08834
524.462	20424.0205
524.669	20127.90559
524.877	20290.17089
525.084	20287.94062
525.291	20262.83612
525.498	20166.38336
525.705	20275.52287
525.912	20739.88515
526.119	20324.54663
526.326	20491.02352
526.533	20472.68151
526.74	20944.07364
526.947	20921.92668
527.153	20940.7793
527.36	20862.25535
527.567	20878.49434
527.774	20959.46879
527.981	20919.06835
528.188	21020.74283
528.395	21043.09709
528.602	21201.54368
528.808	21369.13072
529.015	20932.42878
529.222	21406.01695
529.429	21315.81962
529.635	21033.41124
529.842	21454.81768
530.049	21512.28729
530.256	21311.50193
530.462	21396.45028
530.669	21347.46367
530.876	21688.0175
531.082	21189.80836
531.289	21405.03093
531.495	21179.55813
531.702	21682.39685
531.909	21376.28269
532.115	21661.36904
532.322	21488.78245
532.528	21620.61604
532.735	21774.73576
532.941	21605.79158
533.148	21623.12964
533.354	21555.5339
533.561	21476.41777
533.767	21349.01395
533.974	21284.40505
534.18	21564.97672
534.387	21358.23623
534.593	21433.59065
534.799	21335.52874
535.006	21582.18487
535.212	21721.56254
535.418	21280.51708
535.625	21398.34493
535.831	21802.69834
536.037	21631.21511
536.244	21395.59717
536.45	21152.80166
536.656	21742.24955
536.862	22022.15484
537.068	21906.74566
537.275	21630.0108
537.481	22339.61726
537.687	22134.31151
537.893	22321.002
538.099	22027.45446
538.305	22134.16241
538.512	22228.44019
538.718	21865.45484
538.924	21835.71797
539.13	22051.03264
539.336	21963.83132
539.542	22083.90102
539.748	22016.40021
539.954	21881.73292
540.16	22065.68109
540.366	21928.10824
540.572	21948.57332
540.778	21805.03317
540.984	22063.42857
541.19	21795.37976
541.396	21375.55355
541.602	22066.40753
541.807	21524.95662
542.013	21727.28808
542.219	21258.0401
542.425	21890.07454
542.631	21694.71231
542.837	21916.74671
543.042	21673.49012
543.248	21847.86174
543.454	21756.83977
543.66	21486.42988
543.865	21387.47418
544.071	21922.4883
544.277	21676.79753
544.483	21608.86668
544.688	21364.86536
544.894	22040.45424
545.1	21697.48153
545.305	21582.74242
545.511	21479.1509
545.716	21632.26905
545.922	21436.73455
546.128	21611.05083
546.333	21521.36414
546.539	21763.13182
546.744	21509.95002
546.95	21762.46312
547.155	21463.80501
547.361	21875.561
547.566	21504.34333
547.772	21558.97528
547.977	21523.05401
548.182	21548.44337
548.388	21570.36057
548.593	21402.73318
548.799	21342.89874
549.004	21576.54131
549.209	21354.06103
549.415	21689.70571
549.62	21352.49436
549.825	21623.07794
550.031	21640.81586
550.236	21558.23607
550.441	21572.53627
550.646	21683.07962
550.852	21883.69945
551.057	21682.02493
551.262	21624.45978
551.467	21897.95518
551.672	21626.13349
551.878	21805.88274
552.083	21641.74588
552.288	21849.17703
552.493	21649.54681
552.698	21809.55232
552.903	21675.01924
553.108	21937.86244
553.313	21799.68934
553.518	21781.64277
553.723	22021.18983
553.928	22065.95379
554.133	22176.70361
554.338	21979.17721
554.543	22004.44375
554.748	22319.08358
554.953	22146.72493
555.158	22017.90512
555.363	21958.56931
555.568	21955.51479
555.773	22428.27404
555.978	22263.81835
556.182	21887.12359
556.387	22118.93618
556.592	22286.72748
556.797	22049.46752
557.002	21985.08584
557.206	22330.12977
557.411	22330.11854
557.616	22217.94888
557.821	22279.48186
558.025	22565.00694
558.23	22214.04807
558.435	22146.31178
558.64	22165.7285
558.844	22660.92424
559.049	22077.8581
559.253	22178.27481
559.458	22171.25552
559.663	22389.73481
559.867	22073.0911
560.072	22356.45841
560.276	22042.66576
560.481	22015.47981
560.685	22048.65843
560.89	22159.27134
561.094	22232.06835
561.299	22079.57996
561.503	21907.70251
561.708	22063.43568
561.912	21959.80911
562.117	22213.06781
562.321	22040.91597
562.525	22051.2569
562.73	22119.72098
562.934	21864.75928
563.139	22248.23821
563.343	22200.65727
563.547	21769.03222
