Data from mildly cloudy_Subt2__10__14-22-21-006.txt Node

Date: Mon Oct 13 14:22:21 EDT 2025
User: brett
Spectrometer: USB4F03499
Trigger mode: 4
Integration Time (sec): 4.400000E-4
Scans to average: 1
Electric dark correction enabled: true
Nonlinearity correction enabled: true
Boxcar width: 0
XAxis mode: Wavelengths
Number of Pixels in Spectrum: 3648
>>>>>Begin Spectral Data<<<<<
345.386	51.2714
345.605	51.2714
345.824	51.2714
346.044	62.61414
346.263	29.82496
346.482	-37.87666
346.701	-18.71747
346.92	19.64209
347.139	20.78392
347.358	15.1304
347.577	-23.21876
347.796	18.52828
348.015	45.62595
348.234	-2.91432
348.453	-13.06769
348.672	-30.01721
348.891	6.11636
349.11	2.72709
349.329	-15.32872
349.548	49.0231
349.767	16.26662
349.986	0.47021
350.205	-27.71914
350.424	-13.08749
350.643	83.96927
350.862	45.62949
351.08	27.5413
351.299	-19.8312
351.518	-33.3976
351.737	18.53619
351.956	56.82917
352.174	-14.1972
352.393	8.37568
352.612	-2.91454
352.831	29.79494
353.049	2.72783
353.268	-9.69358
353.487	11.75515
353.705	2.72635
353.924	-16.44355
354.143	2.72762
354.361	21.91798
354.58	3.85502
354.798	42.26639
355.017	-19.82508
355.236	33.22171
355.454	20.77909
355.673	12.8894
355.891	-23.22954
356.11	-18.70588
356.328	10.62604
356.547	-35.65824
356.765	-6.3037
356.984	-26.62503
357.202	47.88931
357.42	33.20365
357.639	38.83454
357.857	3.85427
358.076	6.11185
358.294	-11.93977
358.512	-24.35009
358.731	-32.23434
358.949	-19.83273
359.167	-0.65812
359.386	4.98284
359.604	-0.65792
359.822	-11.95042
360.04	10.62522
360.259	-36.768
360.477	44.48067
360.695	-6.2976
360.913	-32.24804
361.131	-2.91331
361.35	-4.0444
361.568	6.11541
361.786	17.38721
362.004	0.46982
362.222	47.87073
362.44	-24.34726
362.658	69.29911
362.876	-27.72876
363.094	-31.13973
363.312	-20.98626
363.53	30.94017
363.749	-33.36787
363.967	-35.64302
364.184	-17.59595
364.402	6.11351
364.62	24.16907
364.838	-16.43722
365.056	48.9813
365.274	15.12982
365.492	-7.42969
365.71	17.40607
365.928	-28.86285
366.146	26.44458
366.364	-18.69507
366.581	-22.10655
366.799	1.5983
367.017	-11.93746
367.235	-25.47483
367.453	10.62111
367.67	-5.17397
367.888	25.29416
368.106	42.21392
368.323	-10.81014
368.541	16.27292
368.759	-1.78678
368.977	35.44464
369.194	-35.60725
369.412	32.083
369.629	36.61475
369.847	-8.55345
370.065	30.93778
370.282	18.52541
370.5	-24.36992
370.717	-31.12886
370.935	-4.04393
371.152	29.82264
371.37	-28.88074
371.588	-31.12284
371.805	41.10401
372.022	-19.84117
372.24	43.36649
372.457	-2.91342
372.675	0.47022
372.892	14.02467
373.11	24.17469
373.327	3.85666
373.544	36.59057
373.762	-0.65777
373.979	-10.80347
374.196	51.23963
374.414	36.60478
374.631	2.72698
374.848	-4.04833
375.066	-34.50981
375.283	39.94052
375.5	-4.04205
375.717	35.42003
375.935	35.45974
376.152	4.98284
376.369	73.78682
376.586	-46.95211
376.803	-23.21159
377.02	6.11564
377.238	-27.75024
377.455	23.05531
377.672	-10.81181
377.889	55.79356
378.106	9.49743
378.323	35.47489
378.54	-7.43257
378.757	-41.28812
378.974	-7.43257
379.191	-32.25678
379.408	3.85412
379.625	41.10401
379.842	28.6787
380.059	10.62934
380.276	25.31281
380.493	-20.97811
380.71	-2.91601
380.927	29.82496
381.143	-6.30125
381.36	11.76291
381.577	-29.99742
381.794	-6.30052
382.011	50.08723
382.228	-24.35103
382.444	-26.57777
382.661	-24.3832
382.878	34.31709
383.095	3.85606
383.311	49.00407
383.528	-4.04409
383.745	36.56932
383.962	2.72698
384.178	-61.59828
384.395	11.75561
384.612	25.32266
384.828	-46.89397
385.045	-23.23675
385.261	2.72593
385.478	50.14346
385.695	-18.71747
385.911	-28.86843
386.128	-1.78595
386.344	44.543
386.561	50.15125
386.777	-19.83963
386.994	-59.32516
387.21	-31.11923
387.427	19.64512
387.643	15.15329
387.86	-5.17077
388.076	-5.17177
388.292	-13.07325
388.509	-0.65866
388.725	35.47076
388.942	33.20751
389.158	12.89692
389.374	-34.52854
389.591	-19.83733
389.807	-28.87962
390.023	3.85086
390.239	-7.41995
390.456	4.98457
390.672	-13.07123
390.888	23.03743
391.104	9.49633
391.321	-30.00207
391.537	11.76383
391.753	-5.17097
391.969	16.2641
392.185	3.85801
392.401	-13.06415
392.618	-60.48735
392.834	28.6787
393.05	34.31311
393.266	20.78151
393.482	-4.04299
393.698	30.94977
393.914	29.80185
394.13	-27.75132
394.346	-44.65924
394.562	-1.78582
394.778	8.37178
394.994	15.14681
395.21	-39.00526
395.426	9.49633
395.642	6.11375
395.858	24.17469
396.073	61.41852
396.289	7.23363
396.505	-22.10398
396.721	-10.81768
396.937	-14.19501
397.153	57.99322
397.369	-31.14336
397.584	17.42576
397.8	-23.22414
398.016	30.92821
398.232	19.64968
398.447	-32.23434
398.663	-49.19886
398.879	-7.42681
399.094	6.1128
399.31	-28.86061
399.526	12.87345
399.741	-1.78734
399.957	-15.3311
400.173	53.54587
400.388	7.24005
400.604	24.16439
400.82	-14.20105
401.035	39.96987
401.251	-30.00556
401.466	-18.7262
401.682	27.56157
401.897	-11.93378
402.113	-33.34858
402.328	8.37895
402.544	-17.56942
402.759	9.49927
402.974	14.01432
403.19	-15.3222
403.405	35.42685
403.621	33.20493
403.836	17.39999
404.051	12.87891
404.267	18.53187
404.482	-0.65835
404.697	27.55409
404.913	4.98689
405.128	33.19078
405.343	-13.07274
405.559	15.14387
405.774	30.9294
405.989	-28.84392
406.204	60.2537
406.42	14.01323
406.635	43.3648
406.85	-4.03987
407.065	6.10925
407.28	16.27671
407.495	11.75424
407.71	8.36756
407.926	27.54876
408.141	49.00027
408.356	9.49927
408.571	45.61356
408.786	25.30004
409.001	11.74698
409.216	-0.65795
409.431	44.48412
409.646	-9.68756
409.861	53.50226
410.076	-26.60338
410.291	-19.84886
410.506	51.23764
410.721	-16.45881
410.936	20.78151
411.15	-19.82814
411.365	2.72635
411.58	2.72741
411.795	-43.53522
412.01	17.40269
412.225	-1.78568
412.439	-4.04299
412.654	17.38385
412.869	0.47002
413.084	12.8819
413.299	36.58347
413.513	23.058
413.728	11.75242
413.943	-8.55577
414.157	16.2685
414.372	-25.47778
414.587	-14.2005
414.801	-17.57619
415.016	28.69315
415.231	49.00977
415.445	34.33971
415.66	8.36789
415.874	-19.82737
416.089	23.03565
416.304	69.36099
416.518	21.89848
416.733	4.98072
416.947	-5.17257
417.162	23.02675
417.376	-17.58639
417.59	-4.04346
417.805	1.59904
418.019	46.72496
418.234	30.92343
418.448	30.90555
418.663	52.36885
418.877	-24.3285
419.091	7.23865
419.306	6.11209
419.52	-9.68381
419.734	36.57215
419.949	-7.41909
420.163	46.71233
420.377	-20.96998
420.591	18.50896
420.806	45.56251
421.02	67.04761
421.234	-14.20215
421.448	-35.62235
421.663	29.84121
421.877	-19.81441
422.091	25.28927
422.305	43.3162
422.519	26.4302
422.733	26.44149
422.947	-36.75379
423.161	-25.47975
423.376	17.39999
423.59	21.88247
423.804	44.45832
424.018	45.57304
424.232	18.50326
424.446	15.12632
424.66	27.52856
424.874	21.90695
425.088	88.42808
425.302	-46.89036
425.515	-6.30223
425.729	-29.98466
425.943	62.53872
426.157	-22.11256
426.371	-28.8662
426.585	-15.31747
426.799	-43.52512
427.013	36.55943
427.226	9.49119
427.44	-13.0546
427.654	32.04577
427.868	-19.82814
428.081	26.40467
428.295	-11.94439
428.509	30.94617
428.723	6.11091
428.936	-69.40815
429.15	1.59917
429.364	39.94052
429.577	42.22209
429.791	-37.86206
430.005	1.59811
430.218	55.72665
430.432	0.47012
430.645	11.74743
430.859	73.747
431.073	-33.38724
431.286	35.45837
431.5	10.62193
431.713	1.59719
431.927	-27.74486
432.14	66.98293
432.354	-11.94393
432.567	12.8869
432.781	27.54876
432.994	8.37601
433.207	-31.10841
433.421	-33.36143
433.634	20.79764
433.848	-35.63888
434.061	42.22372
434.274	7.23726
434.488	12.88041
434.701	13.99916
434.914	12.8859
435.127	67.01651
435.341	42.22699
435.554	45.58358
435.767	56.92371
435.98	7.23754
436.194	0.46972
436.407	83.94005
436.62	48.97562
436.833	25.29514
437.046	27.55729
437.259	74.88156
437.473	16.2641
437.686	81.66833
437.899	20.78231
438.112	2.72498
438.325	27.53811
438.538	-10.81474
438.751	-30.01488
438.964	-112.16789
439.177	26.39755
439.39	-41.29934
439.603	78.35625
439.816	-0.6584
440.029	6.11375
440.242	-6.29906
440.455	2.72582
440.668	17.40066
440.881	117.77955
441.094	34.32905
441.306	69.30179
441.519	44.46691
441.732	12.88141
441.945	67.02686
442.158	41.0865
442.37	-4.04723
442.583	34.31975
442.796	28.68203
443.009	-5.17337
443.222	-4.04644
443.434	30.93538
443.647	15.13391
443.86	54.58528
444.072	20.7799
444.285	7.24426
444.498	6.11327
444.71	21.92054
444.923	52.38305
445.136	42.18948
445.348	-5.17377
445.561	57.92854
445.773	53.56673
445.986	28.68647
446.198	-10.81014
446.411	36.57215
446.623	18.50967
446.836	1.59836
447.048	1.59898
447.261	38.83454
447.473	19.63301
447.686	3.8513
447.898	-14.19336
448.11	70.40432
448.323	-54.71959
448.535	41.04848
448.748	0.4697
448.96	12.87991
449.172	56.91266
449.385	19.63301
449.597	61.39237
449.809	21.90949
450.021	48.96806
450.234	43.3564
450.446	-35.6375
450.658	6.11138
450.87	30.91269
451.083	27.54237
451.295	28.65215
451.507	-36.77655
451.719	71.53091
451.931	76.03393
452.143	30.9306
452.356	72.60988
452.568	64.76068
452.78	26.38943
452.992	-22.08432
453.204	47.82267
453.416	88.51706
453.628	74.9423
453.84	37.65028
454.052	48.96995
454.264	17.39393
454.476	-18.70878
454.688	60.21885
454.9	45.6171
455.112	16.25343
455.324	91.79872
455.536	35.46938
455.747	19.64588
455.959	21.87827
456.171	-13.0561
456.383	64.78322
456.595	91.79519
456.807	19.64133
457.018	45.57479
457.23	3.85577
457.442	30.92223
457.654	52.3466
457.865	38.81803
458.077	59.07674
458.289	38.78814
458.501	59.09037
458.712	59.11999
458.924	70.39345
459.136	2.72268
459.347	86.19934
459.559	69.2243
459.77	53.45685
459.982	65.89241
460.194	10.62275
460.405	4.97842
460.617	45.54849
460.828	20.77187
461.04	41.0469
461.251	18.49971
461.463	30.8842
461.674	69.26698
461.886	-10.80722
462.097	42.19599
462.309	17.36849
462.52	53.46302
462.731	53.47333
462.943	79.43428
463.154	122.13164
463.366	12.86306
463.577	24.15505
463.788	41.01072
464	57.93743
464.211	64.73571
464.422	89.51955
464.634	97.46077
464.845	56.81606
465.056	126.80346
465.267	1.59682
465.478	54.61055
465.69	34.30251
465.901	89.48859
466.112	100.8034
466.323	89.57131
466.534	97.45701
466.745	34.25511
466.957	106.45451
467.168	111.96516
467.379	117.64814
467.59	61.3521
467.801	21.87995
468.012	69.14478
468.223	104.16742
468.434	97.3895
468.645	107.60483
468.856	69.15799
469.067	66.98035
469.278	65.83153
469.489	64.75319
469.7	91.67902
469.911	79.36085
470.122	94.0574
470.333	142.42533
470.543	163.88521
470.754	104.07558
470.965	100.78401
471.176	160.51956
471.387	116.55945
471.598	128.7824
471.808	85.01394
472.019	89.47829
472.23	82.69591
472.441	106.32384
472.651	125.58106
472.862	126.74966
473.073	117.53569
473.283	104.11544
473.494	108.5512
473.705	151.47341
473.915	72.60988
474.126	97.32604
474.337	100.726
474.547	108.59686
474.758	117.57608
474.968	95.01185
475.179	100.726
475.389	100.61453
475.6	115.15739
475.81	110.81986
476.021	129.96005
476.231	205.22827
476.442	128.82664
476.652	154.76217
476.863	106.29541
477.073	108.52635
477.284	114.06541
477.494	155.67771
477.704	163.54147
477.915	218.7127
478.125	161.52583
478.335	199.55357
478.546	153.52161
478.756	170.38653
478.966	175.8761
479.177	173.83199
479.387	154.57352
479.597	192.72438
479.807	177.02401
480.018	234.40943
480.228	192.8487
480.438	244.40724
480.648	251.362
480.858	142.03596
481.068	208.50457
481.279	243.20493
481.489	268.91625
481.699	253.2573
481.909	250.15609
482.119	355.1635
482.329	262.10766
482.539	312.46038
482.749	263.43391
482.959	300.03041
483.169	281.98334
483.379	331.44748
483.589	301.36112
483.799	341.57787
484.009	332.98772
484.219	318.07809
484.429	322.66431
484.639	412.3917
484.849	363.98049
485.059	389.56274
485.268	308.85683
485.478	446.01823
485.688	308.00558
485.898	409.71811
486.108	400.76215
486.317	435.29136
486.527	296.60341
486.737	469.42152
486.947	451.7277
487.156	505.24263
487.366	405.68527
487.576	394.78147
487.785	409.03629
487.995	430.23565
488.205	453.15749
488.414	493.57582
488.624	452.11225
488.834	539.95552
489.043	451.99495
489.253	485.65157
489.462	475.14967
489.672	580.91908
489.882	523.05752
490.091	555.22078
490.301	575.90718
490.51	627.83516
490.72	567.34999
490.929	573.24629
491.138	580.62192
491.348	580.77035
491.557	643.00271
491.767	563.92282
491.976	626.78518
492.185	688.72758
492.395	617.7397
492.604	657.41351
492.813	694.29435
493.023	793.70233
493.232	758.22688
493.441	798.49374
493.651	807.97569
493.86	903.00961
494.069	881.49534
494.278	1039.70552
494.488	1055.94912
494.697	1124.03991
494.906	1013.3232
495.115	1189.16713
495.324	1255.98899
495.533	1400.23799
495.743	1402.03411
495.952	1616.32273
496.161	1609.86595
496.37	1752.91739
496.579	1794.78073
496.788	1990.39195
496.997	2011.34613
497.206	2187.0377
497.415	2219.0792
497.624	2540.03239
497.833	2539.43116
498.042	2789.34089
498.251	2936.05373
498.46	3222.58174
498.669	3107.7137
498.878	3327.21719
499.087	3547.33103
499.296	3813.62112
499.504	3989.89788
499.713	4198.40165
499.922	4472.59274
500.131	4751.43983
500.34	4987.58759
500.549	5282.79776
500.757	5473.26091
500.966	5779.92926
501.175	6038.54853
501.384	6372.17177
501.592	6499.51078
501.801	6909.01049
502.01	7239.00674
502.218	7599.27946
502.427	7933.52428
502.636	8158.00253
502.844	8495.4732
503.053	8906.32204
503.262	9229.27463
503.47	9489.2576
503.679	9871.15828
503.887	10353.69299
504.096	10592.66405
504.304	10953.49391
504.513	11389.33251
504.721	11698.26896
504.93	11984.29297
505.138	12376.3972
505.347	12794.33636
505.555	13031.88602
505.764	13277.43623
505.972	13629.27578
506.18	13917.38104
506.389	14282.29397
506.597	14351.29573
506.806	14970.10391
507.014	15229.55996
507.222	15292.01722
507.431	15744.76037
507.639	15852.80543
507.847	16497.37213
508.055	16468.36258
508.264	16583.91583
508.472	17016.28773
508.68	17197.04045
508.888	17495.18351
509.096	17652.97853
509.305	17727.889
509.513	17819.69766
509.721	18030.38219
509.929	18323.21802
510.137	18294.38091
510.345	18477.66603
510.553	18572.44783
510.762	18668.00676
510.97	18674.45721
511.178	18978.05304
511.386	19125.90571
511.594	19143.11664
511.802	19189.0669
512.01	19137.98945
512.218	19351.25028
512.426	19509.84048
512.634	19569.34808
512.842	19485.57894
513.049	19467.28969
513.257	19429.58748
513.465	19538.07036
513.673	19623.06827
513.881	19645.01932
514.089	19621.73121
514.297	19488.57856
514.504	19664.4243
514.712	19612.6051
514.92	19743.99527
515.128	19908.36872
515.336	19716.99317
515.543	19757.09912
515.751	19839.32298
515.959	19489.56278
516.166	19513.67049
516.374	19634.99023
516.582	19684.86302
516.789	19676.68677
516.997	19463.41743
517.205	19522.56016
517.412	19559.0542
517.62	19483.6739
517.827	19557.34897
518.035	19459.20531
518.243	19210.05968
518.45	19067.85795
518.658	19183.81113
518.865	19151.74452
519.073	19233.89438
519.28	18994.99162
519.488	19125.80806
519.695	18958.46367
519.902	18869.44868
520.11	19020.29001
520.317	19260.11034
520.525	18974.84339
520.732	18493.16968
520.939	18746.40258
521.147	18659.24454
521.354	18719.19751
521.561	18769.93636
521.769	18740.64533
521.976	18667.94652
522.183	18746.91846
522.391	18600.42507
522.598	18602.93222
522.805	18642.98409
523.012	18510.67224
523.219	18614.15269
523.427	18858.91159
523.634	18447.75619
523.841	18503.24193
524.048	18577.83163
524.255	18760.85051
524.462	18799.05217
524.669	18750.14202
524.877	18837.00928
525.084	18684.00138
525.291	18648.06131
525.498	18815.85103
525.705	18733.22247
525.912	18853.20113
526.119	18598.33224
526.326	18668.59094
526.533	18944.34212
526.74	18975.54879
526.947	18960.95635
527.153	19081.01373
527.36	18982.06244
527.567	19089.20473
527.774	18819.36942
527.981	19034.98019
528.188	18831.8596
528.395	19066.7296
528.602	18951.14343
528.808	19054.12214
529.015	18808.09617
529.222	19216.92858
529.429	18763.64929
529.635	19072.759
529.842	19021.10728
530.049	18991.54033
530.256	19005.60549
530.462	19132.06521
530.669	18946.89784
530.876	19204.74023
531.082	19208.90337
531.289	19059.03717
531.495	19230.18194
531.702	19176.62102
531.909	19057.15403
532.115	19502.5111
532.322	19111.74189
532.528	19074.05526
532.735	19269.1701
532.941	19259.75856
533.148	19200.67652
533.354	19059.66143
533.561	19283.83241
533.767	19029.58893
533.974	19092.07488
534.18	19114.12855
534.387	19158.14615
534.593	19270.81432
534.799	19202.67584
535.006	19170.10618
535.212	18969.4641
535.418	19153.08014
535.625	19238.9776
535.831	19102.81807
536.037	19093.56025
536.244	19125.64958
536.45	18898.43109
536.656	19043.19697
536.862	19263.97966
537.068	19202.90755
537.275	19069.34211
537.481	19234.25276
537.687	19255.53045
537.893	19376.81723
538.099	19261.62949
538.305	19132.0585
538.512	19147.49067
538.718	19110.83928
538.924	19102.32781
539.13	18915.06614
539.336	19134.67449
539.542	19260.91492
539.748	19169.43016
539.954	19082.72247
540.16	19241.04968
540.366	19053.47806
540.572	19096.49018
540.778	19039.12922
540.984	19176.24716
541.19	18985.40257
541.396	18827.99123
541.602	19054.57732
541.807	18895.67036
542.013	18869.64039
542.219	18846.61148
542.425	18795.75475
542.631	18911.29469
542.837	18855.19987
543.042	18824.09106
543.248	18777.42656
543.454	18639.58288
543.66	18915.00738
543.865	18647.47889
544.071	18781.09552
544.277	18620.05408
544.483	18718.58599
544.688	18784.76235
544.894	18771.10274
545.1	18768.84468
545.305	18583.51505
545.511	18473.92901
545.716	18781.96504
545.922	18500.54671
546.128	18405.6479
546.333	18607.71267
546.539	18500.20246
546.744	18634.43099
546.95	18629.10696
547.155	18431.57555
547.361	18538.47864
547.566	18258.09037
547.772	18423.6291
547.977	18491.97117
548.182	18318.57427
548.388	18289.05455
548.593	18488.74385
548.799	18549.69222
549.004	18421.81357
549.209	18525.55024
549.415	18561.3172
549.62	18175.05525
549.825	18419.72436
550.031	18242.14446
550.236	18346.70132
550.441	18414.30625
550.646	18328.60467
550.852	18532.13261
551.057	18083.38599
551.262	18467.36504
551.467	18411.99056
551.672	18222.98651
551.878	18395.52979
552.083	18213.91057
552.288	18074.04995
552.493	18158.6369
552.698	18083.1167
552.903	18213.21001
553.108	18588.73018
553.313	18323.92871
553.518	18186.33728
553.723	18260.33208
553.928	18367.39077
554.133	18293.99161
554.338	18247.87854
554.543	18275.75316
554.748	18140.7175
554.953	18195.97933
555.158	18175.82812
555.363	18286.7799
555.568	18044.52944
555.773	18290.99507
555.978	18259.18569
556.182	18078.57513
556.387	18153.20498
556.592	17959.67392
556.797	18465.14932
557.002	18160.63166
557.206	18200.41818
557.411	18044.39728
557.616	17974.16901
557.821	18248.69489
558.025	18101.89716
558.23	18198.23643
558.435	18004.2786
558.64	17880.73135
558.844	18075.04858
559.049	17987.21798
559.253	18165.01904
559.458	18112.04878
559.663	17967.24749
559.867	17819.12801
560.072	17798.51281
560.276	17842.57008
560.481	17829.63218
560.685	17844.20298
560.89	17799.72987
561.094	17623.25348
561.299	17821.42848
561.503	17566.48693
561.708	17788.71136
561.912	17614.07379
562.117	17597.78121
562.321	17467.49874
562.525	17757.79549
562.73	17633.93079
562.934	17646.01466
563.139	17524.48072
563.343	17390.95912
563.547	17427.67317
563.752	17637.17825
563.956	17331.95453
564.16	17505.12502
564.364	17437.42014
564.569	17285.87551
564.773	17388.70377
564.977	17214.65841
565.181	17373.81933
565.385	17280.67209
565.59	17300.67796
565.794	17203.14413
565.998	17059.55222
566.202	17097.14268
566.406	17110.22753
566.61	17219.20189
566.814	17117.51847
567.018	17291.09313
567.222	17245.01289
567.426	16978.5469
567.63	16918.98253
567.834	16995.83121
568.038	16940.64552
568.242	16811.50399
568.446	16891.08056
568.65	16971.48103
568.854	16841.20227
569.058	16801.10918
569.262	16659.37384
569.466	16905.46451
569.67	16694.3853
569.874	16674.75117
570.078	16754.35146
570.281	16718.94105
570.485	16722.97007
570.689	16749.14939
570.893	16355.96158
571.097	16482.50467
571.3	16499.37741
571.504	16481.56449
571.708	16423.27633
571.912	16632.36417
572.115	16437.10023
572.319	16270.70271
572.523	16421.9439
572.726	16298.71802
572.93	16266.85693
573.133	16259.24236
573.337	16197.2674
573.541	16083.82433
573.744	16126.13459
573.948	16003.7063
574.151	16191.8637
574.355	16109.3917
574.558	16035.0603
574.762	16057.12525
574.965	15857.789
575.169	16188.4643
575.372	16064.30717
575.576	16080.42923
