Data from mildly cloudy_Subt2__0__14-15-27-068.txt Node

Date: Mon Oct 13 14:15:27 EDT 2025
User: brett
Spectrometer: USB4F03499
Trigger mode: 4
Integration Time (sec): 8.500000E-4
Scans to average: 1
Electric dark correction enabled: true
Nonlinearity correction enabled: true
Boxcar width: 0
XAxis mode: Wavelengths
Number of Pixels in Spectrum: 3648
>>>>>Begin Spectral Data<<<<<
345.386	67.15194
345.605	67.15194
345.824	67.15194
346.044	60.45079
346.263	29.919
346.482	-20.85898
346.701	2.82069
346.92	26.49961
347.139	10.72297
347.358	-26.52062
347.577	-21.99625
347.796	26.51908
348.015	8.47209
348.234	-8.46173
348.453	-12.97365
348.672	1.69284
348.891	14.11273
349.11	21.99753
349.329	328.18046
349.548	1112.62965
349.767	1048.06521
349.986	1104.70217
350.205	1030.35678
350.424	1105.65798
350.643	1185.59722
350.862	1175.67214
351.08	1086.16051
351.299	1131.02072
351.518	1064.15024
351.737	1264.4975
351.956	1197.06313
352.174	1193.51575
352.393	1272.10121
352.612	1351.02311
352.831	1339.42492
353.049	1302.92305
353.268	1297.85075
353.487	1472.74398
353.705	1356.48244
353.924	1395.49967
354.143	1463.02443
354.361	1522.98804
354.58	1414.01202
354.798	1621.39849
355.017	1421.29155
355.236	1497.93595
355.454	1574.0623
355.673	1656.53037
355.891	1631.48503
356.11	1584.66285
356.328	1582.62526
356.547	1650.02434
356.765	1606.62152
356.984	1756.44706
357.202	1754.08563
357.42	1835.85806
357.639	1707.93748
357.857	1767.83947
358.076	1711.40034
358.294	1695.71563
358.512	1735.12558
358.731	1757.91588
358.949	1674.83264
359.167	1758.25178
359.386	1785.15058
359.604	1742.79673
359.822	1814.9308
360.04	1866.8294
360.259	1797.25502
360.477	1849.71304
360.695	1851.92682
360.913	1851.63324
361.131	1812.18011
361.35	2007.78698
361.568	1860.11558
361.786	1898.35081
362.004	1807.78483
362.222	1966.4429
362.44	1901.84234
362.658	2022.1597
362.876	1827.87837
363.094	1915.67907
363.312	1829.86005
363.53	1924.24888
363.749	1866.18241
363.967	2117.36179
364.184	1980.38248
364.402	2082.57824
364.62	2060.55143
364.838	1992.4444
365.056	2094.80148
365.274	2191.8789
365.492	2094.82319
365.71	2218.44795
365.928	2225.27078
366.146	2449.91943
366.364	2337.48387
366.581	2451.7901
366.799	2436.72359
367.017	2528.61606
367.235	2534.6358
367.453	2601.91515
367.67	2711.31413
367.888	2824.73645
368.106	2820.87076
368.323	2670.7415
368.541	2795.79905
368.759	2836.57347
368.977	2859.37774
369.194	2972.32099
369.412	2953.90064
369.629	3088.68277
369.847	3008.76671
370.065	3155.11074
370.282	3264.93763
370.5	3262.50119
370.717	3270.42302
370.935	3241.35732
371.152	3332.86667
371.37	3467.25798
371.588	3348.86246
371.805	3428.31928
372.022	3533.87379
372.24	3457.71346
372.457	3501.15092
372.675	3701.33567
372.892	3620.38761
373.11	3507.52872
373.327	3476.65883
373.544	3630.04918
373.762	3580.4892
373.979	3541.21583
374.196	3579.85874
374.414	3566.90306
374.631	3581.34583
374.848	3640.86348
375.066	3547.69495
375.283	3669.24562
375.5	3502.65113
375.717	3596.09005
375.935	3721.75416
376.152	3688.37404
376.369	3630.89023
376.586	3570.44095
376.803	3655.11602
377.02	3720.23497
377.238	3690.43781
377.455	3673.91865
377.672	3666.02886
377.889	3688.31579
378.106	3702.46423
378.323	3768.22131
378.54	3724.71183
378.757	3732.69573
378.974	3672.08098
379.191	3734.95143
379.408	3811.6936
379.625	3887.97058
379.842	3760.90451
380.059	3946.43383
380.276	3907.92694
380.493	3863.96279
380.71	4012.62784
380.927	3923.15981
381.143	3967.8406
381.36	4253.35431
381.577	3989.03494
381.794	3862.63611
382.011	3939.4598
382.228	4156.06737
382.444	3947.82985
382.661	4108.30269
382.878	4233.55436
383.095	4131.57848
383.311	4223.04578
383.528	3951.49554
383.745	3972.75865
383.962	4215.09819
384.178	4162.2116
384.395	4114.34935
384.612	4207.80647
384.828	4163.02936
385.045	4058.22308
385.261	4161.80992
385.478	4078.03479
385.695	4074.33736
385.911	4113.21782
386.128	4106.24416
386.344	4204.57876
386.561	4221.02405
386.777	4014.9122
386.994	4004.68332
387.21	4002.80949
387.427	3973.70436
387.643	4026.27288
387.86	4014.18869
388.076	3870.7703
388.292	4052.88691
388.509	3866.48337
388.725	4012.91602
388.942	3927.07334
389.158	4025.65521
389.374	4079.46793
389.591	4030.00952
389.807	3969.4932
390.023	4067.48596
390.239	4000.27563
390.456	4198.20423
390.672	4163.24784
390.888	4129.83717
391.104	4356.31381
391.321	4262.17539
391.537	4538.76776
391.753	4363.64375
391.969	4524.82707
392.185	4629.78281
392.401	4624.60504
392.618	4556.53747
392.834	4651.32076
393.05	4829.09819
393.266	4715.26186
393.482	4813.41118
393.698	4730.16282
393.914	4704.85952
394.13	4729.31299
394.346	4649.52472
394.562	4713.85072
394.778	4720.68457
394.994	4844.56743
395.21	4875.66536
395.426	4873.03658
395.642	4912.5453
395.858	5208.85458
396.073	4956.91672
396.289	4942.56298
396.505	5112.08487
396.721	5077.40519
396.937	5104.74404
397.153	4839.93843
397.369	4889.29364
397.584	5306.77717
397.8	5013.59922
398.016	5060.39457
398.232	5180.77902
398.447	5067.44617
398.663	5170.83037
398.879	5029.1558
399.094	5342.83955
399.31	5179.02583
399.526	5001.42486
399.741	5328.13665
399.957	5458.37499
400.173	5295.70884
400.388	5357.53968
400.604	5469.54235
400.82	5472.28086
401.035	5771.77135
401.251	5805.7727
401.466	5692.82321
401.682	6032.5016
401.897	6274.06693
402.113	6300.06249
402.328	6422.80254
402.544	6408.74325
402.759	6479.80314
402.974	6680.5602
403.19	6578.86229
403.405	7119.77745
403.621	7436.47967
403.836	7406.23315
404.051	7574.79344
404.267	7770.76925
404.482	7633.39697
404.697	7448.262
404.913	7647.20817
405.128	8232.85328
405.343	8050.89143
405.559	7933.57081
405.774	8279.92618
405.989	8629.19923
406.204	8573.57524
406.42	8633.25074
406.635	8653.57722
406.85	8634.50855
407.065	8668.31489
407.28	9040.02121
407.495	9046.78093
407.71	8669.52598
407.926	8783.14376
408.141	9716.58718
408.356	9450.3291
408.571	9341.2275
408.786	9118.77076
409.001	9225.29556
409.216	9527.84776
409.431	9485.98356
409.646	9538.54509
409.861	9324.08083
410.076	9175.44009
410.291	9521.67682
410.506	9625.06826
410.721	9282.957
410.936	9372.92191
411.15	9294.73385
411.365	9574.44055
411.58	9486.4997
411.795	9428.3926
412.01	9759.00254
412.225	9579.03577
412.439	9429.56827
412.654	9427.76164
412.869	9647.45233
413.084	9578.6429
413.299	9572.75575
413.513	9260.93313
413.728	9405.57455
413.943	9751.61993
414.157	9763.72243
414.372	9825.78834
414.587	9999.1558
414.801	10270.70599
415.016	10004.9755
415.231	10169.58979
415.445	10013.46118
415.66	10128.63718
415.874	10402.64106
416.089	10063.14432
416.304	10785.35242
416.518	10144.95104
416.733	10425.23212
416.947	10079.18438
417.162	10111.36722
417.376	10532.56542
417.59	10807.65428
417.805	10740.60222
418.019	10485.72314
418.234	10540.46388
418.448	10303.39233
418.663	10558.66314
418.877	10413.90867
419.091	10496.01135
419.306	10422.45775
419.52	10676.79678
419.734	10470.29904
419.949	11036.9197
420.163	11109.48623
420.377	10681.75486
420.591	10625.54271
420.806	10940.1211
421.02	10534.39687
421.234	10855.38853
421.448	10805.10604
421.663	11070.40316
421.877	10596.68617
422.091	10761.01487
422.305	10448.82219
422.519	10738.00946
422.733	11359.30199
422.947	10586.22998
423.161	10560.95092
423.376	10748.22983
423.59	10956.51071
423.804	10898.26901
424.018	10839.79629
424.232	10794.02094
424.446	11233.14148
424.66	11156.60802
424.874	10785.94227
425.088	10650.30607
425.302	10741.14553
425.515	11034.70202
425.729	11337.17523
425.943	11352.49804
426.157	11240.24859
426.371	10932.80779
426.585	11242.96318
426.799	11227.681
427.013	11728.50789
427.226	11785.9782
427.44	10954.47879
427.654	11113.07548
427.868	11076.09164
428.081	11360.31371
428.295	11123.1287
428.509	11167.79658
428.723	11091.12257
428.936	11039.50401
429.15	10746.8263
429.364	11050.15739
429.577	10537.83874
429.791	10813.39833
430.005	11342.46275
430.218	11200.7187
430.432	10679.59923
430.645	10729.21604
430.859	10825.88106
431.073	10730.07131
431.286	11134.08038
431.5	11209.84855
431.713	10484.63483
431.927	10590.66214
432.14	11084.28394
432.354	10811.62074
432.567	10869.3442
432.781	11031.28385
432.994	10965.06213
433.207	11151.18639
433.421	11324.32609
433.634	11125.26683
433.848	11524.71177
434.061	11070.47755
434.274	10599.45035
434.488	10738.65162
434.701	10607.42123
434.914	10779.82415
435.127	11126.72597
435.341	11192.72576
435.554	11186.69829
435.767	11548.26117
435.98	11577.3743
436.194	10866.00158
436.407	11086.31678
436.62	12068.27824
436.833	11807.1076
437.046	11598.64695
437.259	11289.38969
437.473	11744.24154
437.686	11863.03592
437.899	11520.32645
438.112	11986.67336
438.325	11655.69188
438.538	11829.99278
438.751	12736.61317
438.964	11885.8205
439.177	12280.89419
439.39	12134.9979
439.603	13000.32841
439.816	12393.75836
440.029	13199.24092
440.242	13498.88988
440.455	13849.36655
440.668	13392.59612
440.881	12869.14399
441.094	12737.08078
441.306	13451.39145
441.519	14020.43028
441.732	14021.07043
441.945	14156.83748
442.158	13307.17822
442.37	13262.58131
442.583	14126.79256
442.796	14781.30081
443.009	14484.66546
443.222	13923.56674
443.434	13079.49341
443.647	14252.89143
443.86	15136.80598
444.072	15436.25637
444.285	14841.26404
444.498	15140.59154
444.71	14572.4844
444.923	14891.36138
445.136	14504.74734
445.348	14211.48174
445.561	14253.27506
445.773	14785.57217
445.986	13715.01628
446.198	14990.50144
446.411	15158.04611
446.623	15198.65113
446.836	15075.5607
447.048	15172.44257
447.261	15769.08119
447.473	15740.67728
447.686	15045.64063
447.898	15150.34264
448.11	16204.14477
448.323	16323.43699
448.535	16116.33917
448.748	15355.22338
448.96	15376.58247
449.172	15539.57014
449.385	14870.55874
449.597	15861.52332
449.809	15741.25724
450.021	16141.76476
450.234	16278.16049
450.446	15466.93128
450.658	15414.2842
450.87	15700.29308
451.083	16064.24239
451.295	16124.91376
451.507	15899.12577
451.719	15893.26838
451.931	16172.12197
452.143	16180.49791
452.356	16025.51424
452.568	16128.87338
452.78	15996.18562
452.992	16401.29315
453.204	17000.88423
453.416	16185.82179
453.628	15753.28692
453.84	16016.97914
454.052	15969.51609
454.264	16898.80089
454.476	16598.26793
454.688	17342.49152
454.9	17325.68221
455.112	16372.69413
455.324	16061.5126
455.536	16695.6625
455.747	17137.5548
455.959	17042.25835
456.171	17067.2904
456.383	16592.56528
456.595	16126.14931
456.807	16235.32754
457.018	16255.44892
457.23	16979.59399
457.442	16388.88116
457.654	16869.40462
457.865	16561.87512
458.077	16005.39481
458.289	16029.98554
458.501	16472.61848
458.712	17286.1872
458.924	17863.49057
459.136	16744.4641
459.347	16513.20488
459.559	16619.17827
459.77	17504.90046
459.982	17671.07817
460.194	17448.6196
460.405	16639.57877
460.617	16749.96847
460.828	17553.41603
461.04	17437.59871
461.251	16840.89559
461.463	18320.65653
461.674	17863.49057
461.886	17657.88654
462.097	17244.83441
462.309	17730.08388
462.52	17023.35361
462.731	18480.52501
462.943	17137.24151
463.154	16734.03681
463.366	17101.33988
463.577	17624.415
463.788	18128.49862
464	18344.20548
464.211	18479.39627
464.422	19517.49525
464.634	19183.77788
464.845	18754.09365
465.056	19181.9972
465.267	18936.5411
465.478	18010.74426
465.69	19012.09681
465.901	18771.63021
466.112	18793.81972
466.323	18894.66357
466.534	19512.56637
466.745	19428.3602
466.957	19648.29877
467.168	19450.82881
467.379	19405.64022
467.59	18709.93487
467.801	18298.32332
468.012	19062.35241
468.223	19497.14329
468.434	19000.39491
468.645	20023.12555
468.856	20336.0754
469.067	19784.46795
469.278	20082.38305
469.489	20337.92572
469.7	19326.18368
469.911	19278.37966
470.122	20643.1379
470.333	21150.57339
470.543	19919.13985
470.754	20727.618
470.965	20792.35117
471.176	20857.75115
471.387	21408.72556
471.598	20699.21457
471.808	20390.56812
472.019	20931.55239
472.23	21049.39109
472.441	20415.40768
472.651	21248.18793
472.862	21130.22398
473.073	21765.98067
473.283	21267.39579
473.494	21200.41797
473.705	21151.8593
473.915	21535.70848
474.126	22248.33044
474.337	21855.62426
474.547	22398.46119
474.758	22776.74627
474.968	22493.47365
475.179	22675.94202
475.389	22324.68723
475.6	22804.91
475.81	23288.36406
476.021	23601.03134
476.231	23968.24024
476.442	23432.41902
476.652	22920.67411
476.863	23252.41067
477.073	23186.77568
477.284	23817.87966
477.494	23600.64336
477.704	24894.0093
477.915	25463.57395
478.125	24140.78105
478.335	24692.86674
478.546	25790.12871
478.756	25157.96812
478.966	25370.30278
479.177	25503.43464
479.387	25709.39538
479.597	25834.26005
479.807	25923.40023
480.018	25669.2865
480.228	26275.72111
480.438	26335.15672
480.648	26850.95812
480.858	26774.25995
481.068	26128.64259
481.279	27007.21758
481.489	28078.83382
481.699	27536.81704
481.909	27311.39024
482.119	29062.33544
482.329	28890.88685
482.539	28703.96254
482.749	28155.49608
482.959	28896.17172
483.169	29736.89824
483.379	29342.85646
483.589	30090.02421
483.799	29611.95695
484.009	29409.36938
484.219	29610.33358
484.429	30039.63418
484.639	29674.08845
484.849	30249.93887
485.059	30560.0665
485.268	30756.10987
485.478	31175.41226
485.688	30423.11707
485.898	30638.34587
486.108	30839.07577
486.317	31200.25605
486.527	31166.68522
486.737	31928.32607
486.947	31609.90104
487.156	32229.26592
487.366	31808.66565
487.576	31213.80787
487.785	31458.58866
487.995	31539.68835
488.205	31837.64912
488.414	32207.77193
488.624	31859.27567
488.834	32055.04059
489.043	31586.70252
489.253	31494.68993
489.462	32046.31056
489.672	32441.30643
489.882	32451.16419
490.091	32716.06418
490.301	32424.23591
490.51	32659.04515
490.72	32661.30345
490.929	32808.07708
491.138	33300.04819
491.348	32900.79553
491.557	32914.2246
491.767	33185.66367
491.976	32972.82102
492.185	33103.30297
492.395	32860.90023
492.604	33189.95768
492.813	33238.60325
493.023	33612.723
493.232	33306.14103
493.441	33262.89204
493.651	33694.29014
493.86	33249.81105
494.069	33674.76785
494.278	33643.29361
494.488	33757.78392
494.697	33635.72543
494.906	33495.90067
495.115	34036.81062
495.324	33621.55849
495.533	34130.2208
495.743	34113.41557
495.952	34632.63496
496.161	34422.62734
496.37	34619.86547
496.579	34688.65305
496.788	34768.43787
496.997	34875.80717
497.206	34717.58256
497.415	34716.93016
497.624	34770.75369
497.833	34955.31202
498.042	34955.96582
498.251	34953.74066
498.46	35065.97631
498.669	35006.49127
498.878	34967.53436
499.087	34983.24381
499.296	35263.8835
499.504	35110.12698
499.713	35184.41306
499.922	35173.80302
500.131	35183.12581
500.34	35232.15056
500.549	35225.42755
500.757	35210.66028
500.966	35263.09961
501.175	35250.8519
501.384	35313.08952
501.592	35223.45187
501.801	35362.339
502.01	35336.29273
502.218	35357.63929
502.427	35422.39542
502.636	35255.23844
502.844	35327.91804
503.053	35257.45101
503.262	35416.83353
503.47	35271.07668
503.679	35355.23801
503.887	35352.8784
504.096	35306.99488
504.304	35339.61855
504.513	35393.08751
504.721	35368.93354
504.93	35318.61145
505.138	35358.90233
505.347	35312.33429
505.555	35286.28966
505.764	35321.90438
505.972	35292.32916
506.18	35175.1572
506.389	35273.44211
506.597	35142.62523
506.806	35294.96567
507.014	35241.64706
507.222	35287.65526
507.431	35268.2801
507.639	35227.12982
507.847	35288.48474
508.055	35259.55828
508.264	35278.3217
508.472	35328.57565
508.68	35245.74141
508.888	35357.9627
509.096	35275.94558
509.305	35318.65516
509.513	35254.03558
509.721	35248.98173
509.929	35318.70256
510.137	35288.49574
510.345	35335.5341
510.553	35302.05833
510.762	35370.0632
510.97	35260.80373
511.178	35287.19764
511.386	35347.57701
511.594	35326.25
511.802	35382.9296
512.01	35319.05613
512.218	35400.75292
512.426	35341.4364
512.634	35396.1093
512.842	35429.77092
513.049	35384.59595
513.257	35410.56235
513.465	35425.6567
513.673	35400.38098
513.881	35456.66304
514.089	35522.55037
514.297	35503.57767
514.504	35486.97957
514.712	35484.69233
514.92	35437.52347
515.128	35578.10247
515.336	35453.70033
515.543	35508.49139
515.751	35433.04549
515.959	35413.05748
516.166	35402.65807
516.374	35374.84201
516.582	35354.50597
516.789	35362.62438
516.997	35316.97827
517.205	35335.21245
517.412	35328.20596
517.62	35299.54817
517.827	35305.13212
518.035	35196.30675
518.243	35211.09022
518.45	35067.35256
518.658	35117.87795
518.865	34942.27586
519.073	35089.76979
519.28	34932.14805
519.488	34929.64075
519.695	34868.73126
519.902	34843.60348
520.11	34824.89087
520.317	34909.85142
520.525	34813.53194
520.732	34700.47239
520.939	34760.65886
521.147	34521.02753
521.354	34698.75068
521.561	34584.34222
521.769	34582.86302
521.976	34384.55831
522.183	34583.39218
522.391	34447.91484
522.598	34499.13023
522.805	34446.80334
523.012	34540.39123
523.219	34458.31235
523.427	34503.87008
523.634	34560.88572
523.841	34533.74743
524.048	34476.06977
524.255	34386.28613
524.462	34398.04655
524.669	34150.63288
524.877	34424.66508
525.084	34282.49266
525.291	34244.43286
525.498	34470.02278
525.705	34442.22099
525.912	34614.10322
526.119	34410.92596
526.326	34515.386
526.533	34494.95733
526.74	34704.27461
526.947	34371.79931
527.153	34617.90242
527.36	34486.64207
527.567	34633.40813
527.774	34646.18594
527.981	34594.44845
528.188	34534.92558
528.395	34689.42454
528.602	34579.7706
528.808	34646.35547
529.015	34405.52024
529.222	34765.40854
529.429	34417.01655
529.635	34649.97864
529.842	34551.49793
530.049	34699.22503
530.256	34598.12853
530.462	34788.46309
530.669	34573.12472
530.876	34701.42397
531.082	34636.59275
531.289	34551.62888
531.495	34562.66241
531.702	34706.35439
531.909	34660.43378
532.115	34834.68515
532.322	34543.95361
532.528	34591.95235
532.735	34646.47411
532.941	34626.64096
533.148	34567.23628
533.354	34615.1931
533.561	34761.86083
533.767	34554.05389
533.974	34550.48821
534.18	34606.91385
534.387	34460.45801
534.593	34539.02422
534.799	34524.82879
535.006	34445.36885
535.212	34452.02494
535.418	34559.51449
535.625	34562.04014
535.831	34460.04709
536.037	34384.43984
536.244	34448.22255
536.45	34177.22833
536.656	34271.6968
536.862	34444.18578
537.068	34470.26243
537.275	34479.03905
537.481	34504.34248
537.687	34529.75854
537.893	34559.65343
538.099	34483.49479
538.305	34454.57163
538.512	34396.68369
538.718	34347.26759
538.924	34400.29369
539.13	34140.91312
539.336	34471.03234
539.542	34371.61302
539.748	34397.38392
539.954	34258.32499
540.16	34376.77928
540.366	34329.75093
540.572	34324.64679
540.778	34279.87778
540.984	34227.81098
541.19	34158.49307
541.396	33968.8323
541.602	34142.20309
541.807	33963.03536
542.013	34108.36133
542.219	33736.15596
542.425	33971.62019
542.631	33866.34217
542.837	33794.60279
543.042	33566.55304
543.248	33776.85571
543.454	33824.14846
543.66	33699.40734
543.865	33705.963
544.071	33720.5868
544.277	33606.55215
544.483	33604.17473
544.688	33460.26966
544.894	33738.74107
545.1	33750.60329
545.305	33580.65095
545.511	33420.78201
545.716	33488.53119
545.922	33140.44982
546.128	33261.09744
546.333	33344.77314
546.539	33461.3084
546.744	33365.93581
546.95	33436.36054
547.155	33320.37151
547.361	33352.87424
547.566	32909.86551
547.772	33132.08352
547.977	33117.57886
548.182	33078.58977
548.388	33070.0909
548.593	33230.7166
548.799	32880.48088
549.004	32939.47739
549.209	33056.06854
549.415	33217.43529
549.62	32920.36131
549.825	32904.50064
550.031	32776.82777
550.236	32918.74128
550.441	32863.87766
550.646	32940.26846
550.852	33067.22095
551.057	33004.49943
551.262	33072.34199
551.467	32949.38023
551.672	32765.42659
551.878	33000.72616
552.083	32800.53049
552.288	32706.87643
552.493	32793.30969
552.698	32810.09212
552.903	32773.05398
553.108	33166.59287
553.313	32718.5826
553.518	32791.8288
553.723	32763.77625
553.928	32829.57929
554.133	32741.40705
554.338	32769.53412
554.543	32836.87368
554.748	32582.97564
554.953	32784.60546
555.158	33075.48662
555.363	32514.49079
555.568	32525.12014
555.773	32786.74144
555.978	32721.62661
556.182	32347.02571
556.387	32434.16576
556.592	32499.1811
556.797	32680.13181
557.002	32614.29451
557.206	32619.96088
557.411	32468.37525
557.616	32322.41619
557.821	32666.46146
558.025	32360.51947
558.23	32305.42465
558.435	32456.19961
558.64	32328.77898
558.844	32174.13444
559.049	32339.23201
