Data from Sun spf550_Subt2__0__10-00-16-810.txt Node

Date: Tue Sep 23 10:00:16 EDT 2025
User: brett
Spectrometer: USB4F03499
Trigger mode: 4
Integration Time (sec): 1.000000E-1
Scans to average: 1
Electric dark correction enabled: true
Nonlinearity correction enabled: true
Boxcar width: 0
XAxis mode: Wavelengths
Number of Pixels in Spectrum: 3648
>>>>>Begin Spectral Data<<<<<
0	47.8441
0.225	47.8441
0.449	47.8441
0.674	-21.31075
0.898	-30.53861
1.123	-0.5722
1.347	-69.36129
1.572	-25.81485
1.796	91.20189
2.021	70.43854
2.245	63.38651
2.469	15.47424
2.694	-60.10456
2.918	-2.86696
3.143	24.65777
3.367	-67.09217
3.591	-39.60477
3.815	-18.91818
4.04	505.98917
4.264	803.92187
4.488	730.41951
4.712	624.04623
4.936	709.91603
5.161	712.89349
5.385	667.03949
5.609	708.45034
5.833	811.99799
6.057	765.9229
6.281	719.70159
6.505	894.89655
6.729	695.78261
6.953	896.39032
7.177	879.93248
7.401	775.53056
7.625	710.17343
7.849	753.71645
8.073	919.55218
8.297	851.32953
8.521	702.55271
8.744	774.47814
8.968	860.13155
9.192	824.29627
9.416	856.22492
9.64	805.80632
9.863	828.10542
10.087	926.10499
10.311	852.37311
10.535	669.36943
10.758	664.12105
10.982	755.62466
11.205	691.55868
11.429	748.80278
11.653	851.26845
11.876	789.81179
12.1	809.92557
12.323	864.53775
12.547	852.06514
12.77	861.61441
12.994	843.91284
13.217	858.88428
13.441	805.33722
13.664	879.47232
13.887	863.53466
14.111	951.74477
14.334	775.26377
14.557	793.23783
14.781	850.78106
15.004	747.50519
15.227	750.22502
15.451	830.4612
15.674	789.86824
15.897	813.18884
16.12	913.84844
16.343	905.13565
16.567	966.05053
16.79	910.1117
17.013	851.19712
17.236	833.96383
17.459	875.79017
17.682	862.72624
17.905	1011.45947
18.128	991.01528
18.351	835.83484
18.574	879.36896
18.797	945.81377
19.02	913.65296
19.243	968.96961
19.466	886.10966
19.689	1039.40744
19.911	955.47017
20.134	937.91869
20.357	1057.74737
20.58	1004.94142
20.803	1003.43288
21.025	1026.92218
21.248	880.81472
21.471	896.91943
21.694	859.94118
21.916	1012.10308
22.139	1072.4649
22.362	956.66947
22.584	1036.89267
22.807	935.63999
23.029	962.45407
23.252	995.42612
23.475	1049.63265
23.697	1085.40845
23.92	1019.27134
24.142	1130.81084
24.365	1167.90749
24.587	1055.82711
24.809	1206.1007
25.032	1322.87271
25.254	1131.76861
25.477	1262.81265
25.699	1235.29774
25.921	1279.05189
26.144	1286.19765
26.366	1326.00932
26.588	1361.76532
26.81	1466.06381
27.033	1440.43441
27.255	1478.07271
27.477	1573.37776
27.699	1604.40733
27.921	1707.67387
28.144	1677.76646
28.366	1844.38197
28.588	2003.50861
28.81	2030.52059
29.032	2124.44555
29.254	2373.21041
29.476	2272.52298
29.698	2444.0079
29.92	2477.99646
30.142	2713.01338
30.364	2837.55582
30.586	2971.68966
30.808	3085.18091
31.029	3167.22284
31.251	3288.34676
31.473	3380.90625
31.695	3779.99346
31.917	3628.32275
32.139	3785.7857
32.36	3924.49281
32.582	4373.74118
32.804	4277.23065
33.026	4568.34929
33.247	4385.60881
33.469	5021.96533
33.691	5034.95447
33.912	5188.4785
34.134	5310.63249
34.355	5648.9164
34.577	5722.25236
34.798	6100.19582
35.02	6134.28686
35.242	6299.71954
35.463	6589.09838
35.684	6656.80613
35.906	6959.68963
36.127	7112.69025
36.349	7189.45844
36.57	7883.9705
36.792	8152.21632
37.013	8206.78098
37.234	8378.18068
37.456	8366.85901
37.677	8845.22368
37.898	9116.38898
38.119	9169.65953
38.341	9292.2714
38.562	9786.37485
38.783	10346.66518
39.004	10310.60346
39.225	10599.02913
39.447	10840.15666
39.668	11412.62733
39.889	11500.79023
40.11	11894.76542
40.331	12175.37791
40.552	12847.85891
40.773	12934.99245
40.994	13346.84692
41.215	13686.59212
41.436	14439.7009
41.657	14584.12074
41.878	15145.19119
42.099	15704.50242
42.32	16376.02432
42.54	16756.24172
42.761	17245.879
42.982	17953.4045
43.203	18367.07336
43.424	19187.87448
43.645	19104.51739
43.865	20166.96847
44.086	19949.46493
44.307	21001.63824
44.527	21503.82493
44.748	22050.72649
44.969	22788.32748
45.189	22590.24289
45.41	22522.50539
45.631	24160.93545
45.851	24017.24317
46.072	24498.2971
46.292	24910.23715
46.513	25184.40627
46.733	26959.18132
46.954	27606.91128
47.174	29053.59745
47.395	28392.79117
47.615	30345.37456
47.836	30661.16905
48.056	31898.89105
48.276	31213.53543
48.497	31318.75468
48.717	32969.68177
48.937	33452.70095
49.158	34358.92411
49.378	34045.04592
49.598	34811.34083
49.818	36081.52035
50.038	35890.80029
50.259	37113.58726
50.479	37721.10359
50.699	39111.7262
50.919	40864.12471
51.139	41754.07794
51.359	42981.9768
51.579	45322.52666
51.799	44441.08721
52.02	46350.10799
52.24	48065.25722
52.46	49508.41297
52.68	51683.48146
52.899	50480.51339
53.119	53487.34815
53.339	57303.66555
53.559	56933.25399
53.779	59347.79039
53.999	62689.49627
54.219	63483.47196
54.439	65700.54995
54.658	65735.02423
54.878	65636.30784
55.098	65675.295
55.318	65613.39857
55.538	65585.93107
55.757	65636.30784
55.977	65647.76923
56.197	65576.78094
56.416	65650.06205
56.636	65647.76923
56.855	65670.70556
57.075	65585.93107
57.295	65682.18053
57.514	65723.52821
57.734	65620.26946
57.953	65636.30784
58.173	65627.14198
58.392	65663.82276
58.612	65673.00019
58.831	65677.58999
59.051	65615.68869
59.27	65549.34757
59.489	65631.72455
59.709	65645.47659
59.928	65666.11684
60.147	65650.06205
60.367	65675.295
60.586	65597.37274
60.805	65656.94159
61.024	65638.59976
61.244	65718.93109
61.463	65652.35505
61.682	65629.43317
61.901	65617.97899
62.12	65675.295
62.34	65638.59976
62.559	65643.18413
62.778	65519.65673
62.997	65663.82276
63.216	65707.44151
63.435	65700.54995
63.654	65549.34757
63.873	65661.52885
64.092	65647.76923
64.311	65588.21905
64.53	65627.14198
64.749	65645.47659
64.968	65634.01611
65.187	65730.42527
65.405	65647.76923
65.624	65643.18413
65.843	65622.56012
66.062	65631.72455
66.281	65595.08405
66.499	65718.93109
66.718	65700.54995
66.937	65617.97899
67.156	65634.01611
67.374	65673.00019
67.593	65535.64042
67.812	65643.18413
68.03	65654.64823
68.249	65702.84695
68.467	65673.00019
68.686	65606.52928
68.905	65595.08405
69.123	65764.93549
69.342	65638.59976
69.56	65668.41111
69.779	65741.92405
69.997	65615.68869
70.216	65656.94159
70.434	65631.72455
70.652	65601.95065
70.871	65647.76923
71.089	65675.295
71.307	65716.63281
71.526	65624.85096
71.744	65682.18053
71.962	65675.295
72.181	65679.88517
72.399	65673.00019
72.617	65629.43317
72.835	65613.39857
73.054	65682.18053
73.272	65659.23513
73.49	65670.70556
73.708	65723.52821
73.926	65714.33471
74.144	65709.73906
74.362	65624.85096
74.58	65659.23513
74.798	65656.94159
75.016	65640.89186
75.234	65673.00019
75.452	65647.76923
75.67	65611.10863
75.888	65684.47607
76.106	65585.93107
76.324	65718.93109
76.542	65723.52821
76.76	65643.18413
76.978	65654.64823
77.196	65686.77179
77.413	65613.39857
77.631	65590.5072
77.849	65698.25314
78.067	65608.81886
78.284	65606.52928
78.502	65663.82276
78.72	65663.82276
78.938	65718.93109
79.155	65700.54995
79.373	65654.64823
79.59	65700.54995
79.808	65663.82276
80.026	65689.06769
80.243	65673.00019
80.461	65563.06107
80.678	65547.0626
80.896	65606.52928
81.113	65636.30784
81.331	65668.41111
81.548	65462.64195
81.766	65601.95065
81.983	65624.85096
82.2	65675.295
82.418	65730.42527
82.635	65595.08405
82.852	65499.11888
83.07	65645.47659
83.287	65656.94159
83.504	65622.56012
83.722	65549.34757
83.939	65638.59976
84.156	65542.4932
84.373	65695.9565
84.591	65654.64823
84.808	65640.89186
85.025	65601.95065
85.242	65675.295
85.459	65634.01611
85.676	65645.47659
85.893	65712.03679
86.11	65627.14198
86.327	65629.43317
86.544	65640.89186
86.761	65670.70556
86.978	65601.95065
87.195	65636.30784
87.412	65746.52486
87.629	65691.36378
87.846	65652.35505
88.063	65567.63365
88.28	65645.47659
88.497	65654.64823
88.713	65684.47607
88.93	65709.73906
89.147	65670.70556
89.364	65611.10863
89.58	65638.59976
89.797	65611.10863
90.014	65640.89186
90.231	65588.21905
90.447	65666.11684
90.664	65611.10863
90.881	65620.26946
91.097	65574.49385
91.314	65581.35565
91.53	65659.23513
91.747	65629.43317
91.963	65693.66005
92.18	65645.47659
92.396	65645.47659
92.613	65631.72455
92.829	65730.42527
93.046	65714.33471
93.262	65705.14414
93.479	65613.39857
93.695	65620.26946
93.911	65654.64823
94.128	65705.14414
94.344	65567.63365
94.56	65606.52928
94.777	65753.42746
94.993	65684.47607
95.209	65579.06821
95.426	65426.20921
95.642	65707.44151
95.858	65668.41111
96.074	65652.35505
96.29	65718.93109
96.506	65647.76923
96.723	65629.43317
96.939	65700.54995
97.155	65689.06769
97.371	65638.59976
97.587	65670.70556
97.803	65673.00019
98.019	65663.82276
98.235	65606.52928
98.451	65695.9565
98.667	65549.34757
98.883	65686.77179
99.099	65718.93109
99.315	65691.36378
99.53	65631.72455
99.746	65663.82276
99.962	65698.25314
100.178	65654.64823
100.394	65656.94159
100.61	65723.52821
100.825	65608.81886
101.041	65686.77179
101.257	65634.01611
101.473	65638.59976
101.688	65620.26946
101.904	65677.58999
102.12	65645.47659
102.335	65631.72455
102.551	65677.58999
102.766	65585.93107
102.982	65663.82276
103.198	65684.47607
103.413	65643.18413
103.629	65675.295
103.844	65668.41111
104.06	65656.94159
104.275	65604.23988
104.49	65622.56012
104.706	65695.9565
104.921	65059.72937
105.137	65643.18413
105.352	65576.78094
105.567	65656.94159
105.783	65634.01611
105.998	65627.14198
106.213	65608.81886
106.429	65693.66005
106.644	65677.58999
106.859	65636.30784
107.074	65510.52705
107.29	65695.9565
107.505	65661.52885
107.72	65590.5072
107.935	65595.08405
108.15	65627.14198
108.365	65707.44151
108.58	65604.23988
108.795	65597.37274
109.01	65604.23988
109.226	65728.12606
109.441	65489.99548
109.656	65707.44151
109.871	65540.20876
110.085	65608.81886
110.3	65638.59976
110.515	65716.63281
110.73	65553.91803
110.945	65666.11684
111.16	65608.81886
111.375	65613.39857
111.59	65661.52885
111.804	65631.72455
112.019	65634.01611
112.234	65670.70556
112.449	65608.81886
112.663	65647.76923
112.878	65670.70556
113.093	65650.06205
113.308	65563.06107
113.522	65647.76923
113.737	65769.54001
113.951	65617.97899
114.166	65650.06205
114.381	65638.59976
114.595	65661.52885
114.81	65631.72455
115.024	65645.47659
115.239	65617.97899
115.453	65679.88517
115.668	65663.82276
115.882	65611.10863
116.097	65663.82276
116.311	65746.52486
116.525	65638.59976
116.74	65753.42746
116.954	65601.95065
117.169	65650.06205
117.383	65631.72455
117.597	65588.21905
117.811	65647.76923
118.026	65563.06107
118.24	65599.66161
118.454	65652.35505
118.668	65654.64823
118.883	65654.64823
119.097	65636.30784
119.311	65636.30784
119.525	65638.59976
119.739	65643.18413
119.953	65663.82276
120.167	65521.93959
120.381	65673.00019
120.595	65638.59976
120.809	65679.88517
121.023	65624.85096
121.237	65663.82276
121.451	65673.00019
121.665	65668.41111
121.879	65636.30784
122.093	65572.20694
122.307	65744.22436
122.521	65684.47607
122.735	65572.20694
122.949	65668.41111
123.163	65723.52821
123.376	65606.52928
123.59	65585.93107
123.804	65643.18413
124.018	65679.88517
124.231	65691.36378
124.445	65714.33471
124.659	65569.92021
124.872	65551.63271
125.086	65647.76923
125.3	65643.18413
125.513	65624.85096
125.727	65679.88517
125.94	65627.14198
126.154	65647.76923
126.368	65695.9565
126.581	65670.70556
126.795	65679.88517
127.008	65675.295
127.222	65707.44151
127.435	65695.9565
127.648	65693.66005
127.862	65622.56012
128.075	65686.77179
128.289	65604.23988
128.502	65698.25314
128.715	65634.01611
128.929	65748.82554
129.142	65675.295
129.355	65645.47659
129.568	65583.64327
129.782	65622.56012
129.995	65567.63365
130.208	65668.41111
130.421	65689.06769
130.634	65682.18053
130.848	65604.23988
131.061	65567.63365
131.274	65608.81886
131.487	65707.44151
131.7	65679.88517
131.913	65606.52928
132.126	65652.35505
132.339	65556.20353
132.552	65467.19914
132.765	65574.49385
132.978	65652.35505
133.191	65675.295
133.404	65611.10863
133.617	65670.70556
133.83	65622.56012
134.043	65700.54995
134.255	65725.82704
134.468	65624.85096
134.681	65721.22956
134.894	65762.63352
135.107	65691.36378
135.319	65613.39857
135.532	65640.89186
135.745	65606.52928
135.958	65659.23513
136.17	65732.72466
136.383	65636.30784
136.596	65684.47607
136.808	65656.94159
137.021	65595.08405
137.233	65686.77179
137.446	65629.43317
137.659	65668.41111
137.871	65519.65673
138.084	65659.23513
138.296	65620.26946
138.509	65654.64823
138.721	65689.06769
138.934	65636.30784
139.146	65622.56012
139.358	65682.18053
139.571	65560.77505
139.783	65565.34727
139.996	65640.89186
140.208	65585.93107
140.42	65592.79554
140.632	65620.26946
140.845	65673.00019
141.057	65732.72466
141.269	65679.88517
141.481	65654.64823
141.694	65700.54995
141.906	65634.01611
142.118	65751.12641
142.33	65627.14198
142.542	65707.44151
142.754	65615.68869
142.967	65739.62393
143.179	65693.66005
143.391	65581.35565
143.603	65673.00019
143.815	65569.92021
144.027	65650.06205
144.239	65542.4932
144.451	65640.89186
144.663	65652.35505
144.875	65576.78094
145.086	65544.77781
145.298	65597.37274
145.51	65675.295
145.722	65579.06821
145.934	65668.41111
146.146	65673.00019
146.358	65656.94159
146.569	65707.44151
146.781	65622.56012
146.993	65705.14414
147.205	65558.4892
147.416	65659.23513
147.628	65650.06205
147.84	65608.81886
148.051	65656.94159
148.263	65622.56012
148.475	65695.9565
148.686	65661.52885
148.898	65585.93107
149.109	65569.92021
149.321	65698.25314
149.532	65576.78094
149.744	65634.01611
149.955	65611.10863
150.167	65666.11684
150.378	65652.35505
150.59	65682.18053
150.801	65721.22956
151.013	65707.44151
151.224	65569.92021
151.435	65656.94159
151.647	65569.92021
151.858	65624.85096
152.069	65656.94159
152.281	65659.23513
152.492	65629.43317
152.703	65663.82276
152.914	65528.78921
153.126	65624.85096
153.337	65629.43317
153.548	65725.82704
153.759	65620.26946
153.97	65705.14414
154.181	65689.06769
154.392	65599.66161
154.604	65716.63281
154.815	65679.88517
155.026	65613.39857
155.237	65656.94159
155.448	65549.34757
155.659	65631.72455
155.87	65638.59976
156.081	65617.97899
156.292	65686.77179
156.502	65718.93109
156.713	65615.68869
156.924	65592.79554
157.135	65636.30784
157.346	65652.35505
157.557	65615.68869
157.768	65682.18053
157.978	65723.52821
158.189	65627.14198
158.4	65689.06769
158.611	65627.14198
158.821	65576.78094
159.032	65666.11684
159.243	65597.37274
159.453	65645.47659
159.664	65645.47659
159.875	65606.52928
160.085	65682.18053
160.296	65606.52928
160.507	65666.11684
160.717	65691.36378
160.928	65604.23988
161.138	65808.70851
161.349	65663.82276
161.559	65730.42527
161.77	65661.52885
161.98	65684.47607
162.19	65611.10863
162.401	65666.11684
162.611	65599.66161
162.822	65673.00019
163.032	65666.11684
163.242	65679.88517
163.453	65599.66161
163.663	65702.84695
163.873	65627.14198
164.084	65689.06769
164.294	65700.54995
164.504	65650.06205
164.714	65631.72455
164.924	65634.01611
165.135	65684.47607
165.345	65604.23988
165.555	65643.18413
165.765	65590.5072
165.975	65599.66161
166.185	65647.76923
166.395	65675.295
166.605	65716.63281
166.815	65705.14414
167.025	65663.82276
167.235	65565.34727
167.445	65762.63352
167.655	65627.14198
167.865	65656.94159
168.075	65640.89186
168.285	65656.94159
168.495	65638.59976
168.705	65574.49385
168.915	65549.34757
169.124	65613.39857
169.334	65615.68869
169.544	65620.26946
169.754	65656.94159
169.964	65611.10863
170.173	65585.93107
170.383	65631.72455
170.593	65638.59976
170.802	65595.08405
171.012	65698.25314
171.222	65661.52885
171.431	65702.84695
171.641	65668.41111
171.851	65723.52821
172.06	65682.18053
172.27	65684.47607
172.479	65617.97899
172.689	65679.88517
172.898	65627.14198
173.108	65670.70556
173.317	65604.23988
173.527	65709.73906
173.736	65714.33471
173.945	65640.89186
174.155	65601.95065
174.364	65604.23988
174.574	65640.89186
174.783	65652.35505
174.992	65590.5072
175.202	65650.06205
175.411	65592.79554
175.62	65679.88517
175.829	65693.66005
176.039	65629.43317
176.248	65599.66161
176.457	65652.35505
176.666	65567.63365
176.875	65684.47607
177.084	65613.39857
177.294	65691.36378
177.503	65705.14414
177.712	65563.06107
177.921	65686.77179
178.13	65654.64823
178.339	65741.92405
178.548	65675.295
178.757	65643.18413
178.966	65604.23988
179.175	65617.97899
179.384	65661.52885
179.593	65638.59976
179.802	65716.63281
180.011	65643.18413
180.219	65663.82276
180.428	65634.01611
180.637	65634.01611
180.846	65604.23988
181.055	65636.30784
181.263	65661.52885
181.472	65558.4892
181.681	65691.36378
181.89	65627.14198
182.098	65560.77505
182.307	65668.41111
182.516	65629.43317
182.724	65645.47659
182.933	65608.81886
183.142	65732.72466
183.35	65629.43317
183.559	65636.30784
183.767	65652.35505
183.976	65682.18053
184.184	65695.9565
184.393	65622.56012
184.601	65682.18053
184.81	65563.06107
185.018	65686.77179
185.227	65624.85096
185.435	65705.14414
185.644	65608.81886
185.852	65751.12641
186.06	65606.52928
186.269	65606.52928
186.477	65601.95065
186.685	65650.06205
186.894	65560.77505
187.102	65645.47659
187.31	65576.78094
187.518	65650.06205
187.727	65735.02423
187.935	65712.03679
188.143	65652.35505
188.351	65620.26946
188.559	65712.03679
188.768	65574.49385
188.976	65595.08405
189.184	65611.10863
189.392	65608.81886
189.6	65617.97899
189.808	65537.9245
190.016	65679.88517
190.224	65668.41111
190.432	65638.59976
190.64	65643.18413
190.848	65634.01611
191.056	65585.93107
191.264	65624.85096
191.472	65650.06205
191.679	65666.11684
191.887	65659.23513
192.095	65741.92405
192.303	65622.56012
192.511	65673.00019
192.719	65748.82554
192.926	65592.79554
193.134	65748.82554
193.342	65677.58999
193.55	65656.94159
193.757	65650.06205
193.965	65627.14198
194.173	65611.10863
194.38	65716.63281
194.588	65691.36378
194.796	65670.70556
195.003	65595.08405
195.211	65691.36378
195.418	65673.00019
195.626	65739.62393
195.833	65634.01611
196.041	65590.5072
196.248	65650.06205
196.456	65592.79554
196.663	65549.34757
196.871	65679.88517
197.078	65631.72455
197.285	65656.94159
197.493	65631.72455
197.7	65512.80921
197.908	65624.85096
198.115	65666.11684
198.322	65636.30784
198.529	65707.44151
198.737	65725.82704
198.944	65631.72455
199.151	65723.52821
199.358	65689.06769
199.566	65767.23766
199.773	65558.4892
199.98	65654.64823
200.187	65684.47607
200.394	65647.76923
200.601	65526.50583
200.809	65737.32399
201.016	65624.85096
201.223	65617.97899
201.43	65732.72466
201.637	65675.295
201.844	65679.88517
202.051	65753.42746
202.258	65629.43317
202.465	65670.70556
202.672	65741.92405
202.878	65647.76923
203.085	65675.295
203.292	65629.43317
203.499	65599.66161
203.706	65647.76923
203.913	65645.47659
204.12	65707.44151
204.326	65689.06769
204.533	65700.54995
204.74	65590.5072
204.947	65638.59976
205.153	65650.06205
205.36	65634.01611
205.567	65739.62393
205.773	65732.72466
205.98	65611.10863
206.187	65654.64823
206.393	65645.47659
206.6	65668.41111
206.806	65709.73906
207.013	65583.64327
207.22	65590.5072
207.426	65700.54995
207.633	65640.89186
207.839	65574.49385
208.046	65606.52928
208.252	65608.81886
208.458	65604.23988
208.665	65631.72455
208.871	65670.70556
209.078	65563.06107
209.284	65654.64823
209.49	65666.11684
209.697	65668.41111
209.903	65707.44151
210.109	65673.00019
210.316	65606.52928
210.522	65686.77179
210.728	65624.85096
210.934	65428.48497
211.14	65668.41111
211.347	65728.12606
211.553	65613.39857
211.759	65636.30784
211.965	65590.5072
212.171	65613.39857
212.377	65579.06821
212.583	65640.89186
212.789	65677.58999
212.996	65627.14198
213.202	65592.79554
213.408	65634.01611
213.614	65640.89186
213.82	65689.06769
214.025	65673.00019
214.231	65718.93109
214.437	65677.58999
214.643	65574.49385
214.849	65638.59976
215.055	65645.47659
215.261	65702.84695
215.467	65636.30784
215.672	65716.63281
215.878	65576.78094
216.084	65695.9565
216.29	65636.30784
216.496	65560.77505
216.701	65604.23988
216.907	65698.25314
217.113	65638.59976
217.318	65569.92021
217.524	65682.18053
217.73	65693.66005
217.935	65661.52885
218.141	65608.81886
218.346	65627.14198
218.552	65659.23513
218.758	65627.14198
218.963	65615.68869
219.169	65624.85096
219.374	65636.30784
219.58	65636.30784
219.785	65656.94159
219.991	65583.64327
220.196	65737.32399
220.401	65670.70556
220.607	65640.89186
220.812	65556.20353
