Data from Sun spf550_Subt2__1__10-00-17-110.txt Node

Date: Tue Sep 23 10:00:17 EDT 2025
User: brett
Spectrometer: USB4F03499
Trigger mode: 4
Integration Time (sec): 1.000000E-1
Scans to average: 1
Electric dark correction enabled: true
Nonlinearity correction enabled: true
Boxcar width: 0
XAxis mode: Wavelengths
Number of Pixels in Spectrum: 3648
>>>>>Begin Spectral Data<<<<<
0	7.11449
0.225	7.11449
0.449	7.11449
0.674	-92.0777
0.898	-50.53139
1.123	9.34436
1.347	4.77088
1.572	-2.10257
1.796	98.83687
2.021	75.77656
2.245	-27.2618
2.469	11.65421
2.694	-102.92103
2.918	-6.69
3.143	-61.8324
3.367	29.95997
3.591	-29.65063
3.815	91.74186
4.04	520.2559
4.264	759.88415
4.488	749.05955
4.712	750.05349
4.936	647.94792
5.161	765.26775
5.385	696.982
5.609	664.36498
5.833	826.11318
6.057	833.62902
6.281	774.15239
6.505	790.66097
6.729	734.52679
6.953	901.60156
7.177	724.39996
7.401	641.87891
7.625	735.53321
7.849	743.26858
8.073	712.37583
8.297	639.5404
8.521	815.2598
8.744	770.74663
8.968	796.00761
9.192	771.31241
9.416	783.08974
9.64	819.96897
9.863	819.90927
10.087	815.2598
10.311	826.31515
10.535	699.21848
10.758	781.01777
10.982	754.13301
11.205	690.06692
11.429	778.62386
11.653	764.93042
11.876	683.30383
12.1	752.49885
12.323	771.31241
12.547	841.6478
12.77	797.54595
12.994	782.19131
13.217	832.83664
13.441	803.84686
13.664	882.44773
13.887	848.65177
14.111	814.31551
14.334	682.27295
14.557	762.69461
14.781	802.45442
15.004	855.31106
15.227	746.49949
15.451	902.65524
15.674	763.82916
15.897	778.29041
16.12	774.04021
16.343	923.69264
16.567	971.25357
16.79	774.65876
17.013	811.87655
17.236	850.33179
17.459	843.09064
17.682	762.9711
17.905	949.99194
18.128	973.95493
18.351	841.04128
18.574	822.18379
18.797	913.14818
19.02	887.67317
19.243	1016.43734
19.466	808.85995
19.689	926.71455
19.911	889.33435
20.134	949.80401
20.357	914.13464
20.58	834.28711
20.803	1004.17506
21.025	834.10723
21.248	1001.73672
21.471	933.23285
21.694	980.83212
21.916	923.89065
22.139	1055.42308
22.362	932.92952
22.584	933.1298
22.807	1031.88108
23.029	842.96966
23.252	960.63245
23.475	1085.77606
23.697	1030.58694
23.92	1000.01219
24.142	1109.42379
24.365	1022.57753
24.587	1074.29727
24.809	1020.93339
25.032	1074.49261
25.254	1088.2889
25.477	1245.89164
25.699	1189.66669
25.921	1273.17562
26.144	1330.91351
26.366	1324.5393
26.588	1232.63913
26.81	1348.04287
27.033	1315.83411
27.255	1369.2605
27.477	1501.8763
27.699	1535.1352
27.921	1688.76965
28.144	1750.3892
28.366	1703.76146
28.588	1939.09633
28.81	1944.47144
29.032	2079.83071
29.254	2143.62945
29.476	2068.50995
29.698	2204.00635
29.92	2326.38334
30.142	2542.77982
30.364	2531.00587
30.586	2842.72063
30.808	2798.85928
31.029	3125.59244
31.251	3187.64099
31.473	3136.85309
31.695	3484.8585
31.917	3540.84948
32.139	3608.40451
32.36	3827.03696
32.582	4016.17704
32.804	4052.91142
33.026	4287.17844
33.247	4392.52565
33.469	4549.36516
33.691	4775.73517
33.912	5034.64579
34.134	5177.82657
34.355	5306.80988
34.577	5581.55124
34.798	5696.22162
35.02	5936.88637
35.242	5867.56037
35.463	6226.99169
35.684	6380.64774
35.906	6641.08359
36.127	6831.10793
36.349	6839.06941
36.57	7445.36175
36.792	7645.18264
37.013	7774.72274
37.234	7825.04538
37.456	8129.15292
37.677	8393.683
37.898	8608.64351
38.119	8908.10488
38.341	8996.52603
38.562	9299.28365
38.783	9666.37231
39.004	9831.79657
39.225	9836.18904
39.447	10387.62321
39.668	10958.06063
39.889	11241.60501
40.11	11667.76093
40.331	11811.29658
40.552	12056.36921
40.773	12582.7991
40.994	12895.70746
41.215	13019.45024
41.436	13725.61115
41.657	14073.77678
41.878	14438.52343
42.099	15041.89053
42.32	15553.0168
42.54	16100.80728
42.761	16458.49606
42.982	17080.33756
43.203	17505.81234
43.424	18236.68063
43.645	18301.42347
43.865	19052.52177
44.086	19269.67093
44.307	20170.98448
44.527	20727.82055
44.748	20975.54606
44.969	21545.98341
45.189	21350.07148
45.41	21949.45645
45.631	23255.66958
45.851	22930.91901
46.072	23409.75822
46.292	23819.46812
46.513	24464.15589
46.733	25429.62062
46.954	26121.87386
47.174	27594.16703
47.395	27316.99104
47.615	28458.46801
47.836	29243.10381
48.056	30459.17912
48.276	29948.05663
48.497	30010.23663
48.717	31424.14922
48.937	31479.04805
49.158	32565.56932
49.378	32350.53137
49.598	33192.95393
49.818	34548.21236
50.038	33931.5551
50.259	35321.2727
50.479	35910.56796
50.699	37570.22556
50.919	38907.29332
51.139	39664.71584
51.359	40759.81525
51.579	43142.9873
51.799	42427.24288
52.02	44415.44857
52.24	45998.17709
52.46	47381.22498
52.68	48906.25087
52.899	47795.01146
53.119	51073.34509
53.339	54483.4358
53.559	54066.00068
53.779	56512.58612
53.999	59440.96484
54.219	60834.87078
54.439	62814.07065
54.658	63460.80362
54.878	65637.11161
55.098	65676.09877
55.318	65614.20233
55.538	65586.73484
55.757	65637.11161
55.977	65648.57299
56.197	65577.58471
56.416	65650.86581
56.636	65648.57299
56.855	65671.50932
57.075	65586.73484
57.295	65682.98429
57.514	65724.33198
57.734	65621.07323
57.953	65637.11161
58.173	65627.94574
58.392	65664.62652
58.612	65673.80395
58.831	65678.39376
59.051	65616.49245
59.27	65550.15134
59.489	65632.52832
59.709	65646.28036
59.928	65666.92061
60.147	65650.86581
60.367	65676.09877
60.586	65598.17651
60.805	65657.74535
61.024	65639.40353
61.244	65719.73486
61.463	65653.15881
61.682	65630.23694
61.901	65618.78275
62.12	65676.09877
62.34	65639.40353
62.559	65643.9879
62.778	65520.4605
62.997	65664.62652
63.216	65708.24527
63.435	65701.35372
63.654	65550.15134
63.873	65662.33262
64.092	65648.57299
64.311	65589.02282
64.53	65627.94574
64.749	65646.28036
64.968	65634.81987
65.187	65731.22904
65.405	65648.57299
65.624	65643.9879
65.843	65623.36389
66.062	65632.52832
66.281	65595.88782
66.499	65719.73486
66.718	65701.35372
66.937	65618.78275
67.156	65634.81987
67.374	65673.80395
67.593	65536.44418
67.812	65643.9879
68.03	65655.45199
68.249	65703.65072
68.467	65673.80395
68.686	65607.33305
68.905	65595.88782
69.123	65765.73926
69.342	65639.40353
69.56	65669.21488
69.779	65742.72782
69.997	65616.49245
70.216	65657.74535
70.434	65632.52832
70.652	65602.75442
70.871	65648.57299
71.089	65676.09877
71.307	65717.43657
71.526	65625.65473
71.744	65682.98429
71.962	65676.09877
72.181	65680.68894
72.399	65673.80395
72.617	65630.23694
72.835	65614.20233
73.054	65682.98429
73.272	65660.0389
73.49	65671.50932
73.708	65724.33198
73.926	65715.13847
74.144	65710.54282
74.362	65625.65473
74.58	65660.0389
74.798	65657.74535
75.016	65641.69562
75.234	65673.80395
75.452	65648.57299
75.67	65611.91239
75.888	65685.27983
76.106	65586.73484
76.324	65719.73486
76.542	65724.33198
76.76	65643.9879
76.978	65655.45199
77.196	65687.57556
77.413	65614.20233
77.631	65591.31097
77.849	65699.0569
78.067	65609.62263
78.284	65607.33305
78.502	65664.62652
78.72	65664.62652
78.938	65719.73486
79.155	65701.35372
79.373	65655.45199
79.59	65701.35372
79.808	65664.62652
80.026	65689.87146
80.243	65673.80395
80.461	65563.86484
80.678	65547.86637
80.896	65607.33305
81.113	65637.11161
81.331	65669.21488
81.548	65463.44571
81.766	65602.75442
81.983	65625.65473
82.2	65676.09877
82.418	65731.22904
82.635	65595.88782
82.852	65499.92265
83.07	65646.28036
83.287	65657.74535
83.504	65623.36389
83.722	65550.15134
83.939	65639.40353
84.156	65543.29697
84.373	65696.76027
84.591	65655.45199
84.808	65641.69562
85.025	65602.75442
85.242	65676.09877
85.459	65634.81987
85.676	65646.28036
85.893	65712.84056
86.11	65627.94574
86.327	65630.23694
86.544	65641.69562
86.761	65671.50932
86.978	65602.75442
87.195	65637.11161
87.412	65747.32863
87.629	65692.16755
87.846	65653.15881
88.063	65568.43742
88.28	65646.28036
88.497	65655.45199
88.713	65685.27983
88.93	65710.54282
89.147	65671.50932
89.364	65611.91239
89.58	65639.40353
89.797	65611.91239
90.014	65641.69562
90.231	65589.02282
90.447	65666.92061
90.664	65611.91239
90.881	65621.07323
91.097	65575.29762
91.314	65582.15942
91.53	65660.0389
91.747	65630.23694
91.963	65694.46382
92.18	65646.28036
92.396	65646.28036
92.613	65632.52832
92.829	65731.22904
93.046	65715.13847
93.262	65705.94791
93.479	65614.20233
93.695	65621.07323
93.911	65655.45199
94.128	65705.94791
94.344	65568.43742
94.56	65607.33305
94.777	65754.23122
94.993	65685.27983
95.209	65579.87197
95.426	65427.01297
95.642	65708.24527
95.858	65669.21488
96.074	65653.15881
96.29	65719.73486
96.506	65648.57299
96.723	65630.23694
96.939	65701.35372
97.155	65689.87146
97.371	65639.40353
97.587	65671.50932
97.803	65673.80395
98.019	65664.62652
98.235	65607.33305
98.451	65696.76027
98.667	65550.15134
98.883	65687.57556
99.099	65719.73486
99.315	65692.16755
99.53	65632.52832
99.746	65664.62652
99.962	65699.0569
100.178	65655.45199
100.394	65657.74535
100.61	65724.33198
100.825	65609.62263
101.041	65687.57556
101.257	65634.81987
101.473	65639.40353
101.688	65621.07323
101.904	65678.39376
102.12	65646.28036
102.335	65632.52832
102.551	65678.39376
102.766	65586.73484
102.982	65664.62652
103.198	65685.27983
103.413	65643.9879
103.629	65676.09877
103.844	65669.21488
104.06	65657.74535
104.275	65605.04365
104.49	65623.36389
104.706	65696.76027
104.921	65060.53314
105.137	65643.9879
105.352	65577.58471
105.567	65657.74535
105.783	65634.81987
105.998	65627.94574
106.213	65609.62263
106.429	65694.46382
106.644	65678.39376
106.859	65637.11161
107.074	65511.33082
107.29	65696.76027
107.505	65662.33262
107.72	65591.31097
107.935	65595.88782
108.15	65627.94574
108.365	65708.24527
108.58	65605.04365
108.795	65598.17651
109.01	65605.04365
109.226	65728.92983
109.441	65490.79925
109.656	65708.24527
109.871	65541.01253
110.085	65609.62263
110.3	65639.40353
110.515	65717.43657
110.73	65554.7218
110.945	65666.92061
111.16	65609.62263
111.375	65614.20233
111.59	65662.33262
111.804	65632.52832
112.019	65634.81987
112.234	65671.50932
112.449	65609.62263
112.663	65648.57299
112.878	65671.50932
113.093	65650.86581
113.308	65563.86484
113.522	65648.57299
113.737	65770.34378
113.951	65618.78275
114.166	65650.86581
114.381	65639.40353
114.595	65662.33262
114.81	65632.52832
115.024	65646.28036
115.239	65618.78275
115.453	65680.68894
115.668	65664.62652
115.882	65611.91239
116.097	65664.62652
116.311	65747.32863
116.525	65639.40353
116.74	65754.23122
116.954	65602.75442
117.169	65650.86581
117.383	65632.52832
117.597	65589.02282
117.811	65648.57299
118.026	65563.86484
118.24	65600.46537
118.454	65653.15881
118.668	65655.45199
118.883	65655.45199
119.097	65637.11161
119.311	65637.11161
119.525	65639.40353
119.739	65643.9879
119.953	65664.62652
120.167	65522.74336
120.381	65673.80395
120.595	65639.40353
120.809	65680.68894
121.023	65625.65473
121.237	65664.62652
121.451	65673.80395
121.665	65669.21488
121.879	65637.11161
122.093	65573.01071
122.307	65745.02813
122.521	65685.27983
122.735	65573.01071
122.949	65669.21488
123.163	65724.33198
123.376	65607.33305
123.59	65586.73484
123.804	65643.9879
124.018	65680.68894
124.231	65692.16755
124.445	65715.13847
124.659	65570.72398
124.872	65552.43648
125.086	65648.57299
125.3	65643.9879
125.513	65625.65473
125.727	65680.68894
125.94	65627.94574
126.154	65648.57299
126.368	65696.76027
126.581	65671.50932
126.795	65680.68894
127.008	65676.09877
127.222	65708.24527
127.435	65696.76027
127.648	65694.46382
127.862	65623.36389
128.075	65687.57556
128.289	65605.04365
128.502	65699.0569
128.715	65634.81987
128.929	65749.62931
129.142	65676.09877
129.355	65646.28036
129.568	65584.44704
129.782	65623.36389
129.995	65568.43742
130.208	65669.21488
130.421	65689.87146
130.634	65682.98429
130.848	65605.04365
131.061	65568.43742
131.274	65609.62263
131.487	65708.24527
131.7	65680.68894
131.913	65607.33305
132.126	65653.15881
132.339	65557.00729
132.552	65468.00291
132.765	65575.29762
132.978	65653.15881
133.191	65676.09877
133.404	65611.91239
133.617	65671.50932
133.83	65623.36389
134.043	65701.35372
134.255	65726.63081
134.468	65625.65473
134.681	65722.03332
134.894	65763.43728
135.107	65692.16755
135.319	65614.20233
135.532	65641.69562
135.745	65607.33305
135.958	65660.0389
136.17	65733.52842
136.383	65637.11161
136.596	65685.27983
136.808	65657.74535
137.021	65595.88782
137.233	65687.57556
137.446	65630.23694
137.659	65669.21488
137.871	65520.4605
138.084	65660.0389
138.296	65621.07323
138.509	65655.45199
138.721	65689.87146
138.934	65637.11161
139.146	65623.36389
139.358	65682.98429
139.571	65561.57881
139.783	65566.15104
139.996	65641.69562
140.208	65586.73484
140.42	65593.5993
140.632	65621.07323
140.845	65673.80395
141.057	65733.52842
141.269	65680.68894
141.481	65655.45199
141.694	65701.35372
141.906	65634.81987
142.118	65751.93017
142.33	65627.94574
142.542	65708.24527
142.754	65616.49245
142.967	65740.42769
143.179	65694.46382
143.391	65582.15942
143.603	65673.80395
143.815	65570.72398
144.027	65650.86581
144.239	65543.29697
144.451	65641.69562
144.663	65653.15881
144.875	65577.58471
145.086	65545.58158
145.298	65598.17651
145.51	65676.09877
145.722	65579.87197
145.934	65669.21488
146.146	65673.80395
146.358	65657.74535
146.569	65708.24527
146.781	65623.36389
146.993	65705.94791
147.205	65559.29296
147.416	65660.0389
147.628	65650.86581
147.84	65609.62263
148.051	65657.74535
148.263	65623.36389
148.475	65696.76027
148.686	65662.33262
148.898	65586.73484
149.109	65570.72398
149.321	65699.0569
149.532	65577.58471
149.744	65634.81987
149.955	65611.91239
150.167	65666.92061
150.378	65653.15881
150.59	65682.98429
150.801	65722.03332
151.013	65708.24527
151.224	65570.72398
151.435	65657.74535
151.647	65570.72398
151.858	65625.65473
152.069	65657.74535
152.281	65660.0389
152.492	65630.23694
152.703	65664.62652
152.914	65529.59298
153.126	65625.65473
153.337	65630.23694
153.548	65726.63081
153.759	65621.07323
153.97	65705.94791
154.181	65689.87146
154.392	65600.46537
154.604	65717.43657
154.815	65680.68894
155.026	65614.20233
155.237	65657.74535
155.448	65550.15134
155.659	65632.52832
155.87	65639.40353
156.081	65618.78275
156.292	65687.57556
156.502	65719.73486
156.713	65616.49245
156.924	65593.5993
157.135	65637.11161
157.346	65653.15881
157.557	65616.49245
157.768	65682.98429
157.978	65724.33198
158.189	65627.94574
158.4	65689.87146
158.611	65627.94574
158.821	65577.58471
159.032	65666.92061
159.243	65598.17651
159.453	65646.28036
159.664	65646.28036
159.875	65607.33305
160.085	65682.98429
160.296	65607.33305
160.507	65666.92061
160.717	65692.16755
160.928	65605.04365
161.138	65809.51228
161.349	65664.62652
161.559	65731.22904
161.77	65662.33262
161.98	65685.27983
162.19	65611.91239
162.401	65666.92061
162.611	65600.46537
162.822	65673.80395
163.032	65666.92061
163.242	65680.68894
163.453	65600.46537
163.663	65703.65072
163.873	65627.94574
164.084	65689.87146
164.294	65701.35372
164.504	65650.86581
164.714	65632.52832
164.924	65634.81987
165.135	65685.27983
165.345	65605.04365
165.555	65643.9879
165.765	65591.31097
165.975	65600.46537
166.185	65648.57299
166.395	65676.09877
166.605	65717.43657
166.815	65705.94791
167.025	65664.62652
167.235	65566.15104
167.445	65763.43728
167.655	65627.94574
167.865	65657.74535
168.075	65641.69562
168.285	65657.74535
168.495	65639.40353
168.705	65575.29762
168.915	65550.15134
169.124	65614.20233
169.334	65616.49245
169.544	65621.07323
169.754	65657.74535
169.964	65611.91239
170.173	65586.73484
170.383	65632.52832
170.593	65639.40353
170.802	65595.88782
171.012	65699.0569
171.222	65662.33262
171.431	65703.65072
171.641	65669.21488
171.851	65724.33198
172.06	65682.98429
172.27	65685.27983
172.479	65618.78275
172.689	65680.68894
172.898	65627.94574
173.108	65671.50932
173.317	65605.04365
173.527	65710.54282
173.736	65715.13847
173.945	65641.69562
174.155	65602.75442
174.364	65605.04365
174.574	65641.69562
174.783	65653.15881
174.992	65591.31097
175.202	65650.86581
175.411	65593.5993
175.62	65680.68894
175.829	65694.46382
176.039	65630.23694
176.248	65600.46537
176.457	65653.15881
176.666	65568.43742
176.875	65685.27983
177.084	65614.20233
177.294	65692.16755
177.503	65705.94791
177.712	65563.86484
177.921	65687.57556
178.13	65655.45199
178.339	65742.72782
178.548	65676.09877
178.757	65643.9879
178.966	65605.04365
179.175	65618.78275
179.384	65662.33262
179.593	65639.40353
179.802	65717.43657
180.011	65643.9879
180.219	65664.62652
180.428	65634.81987
180.637	65634.81987
180.846	65605.04365
181.055	65637.11161
181.263	65662.33262
181.472	65559.29296
181.681	65692.16755
181.89	65627.94574
182.098	65561.57881
182.307	65669.21488
182.516	65630.23694
182.724	65646.28036
182.933	65609.62263
183.142	65733.52842
183.35	65630.23694
183.559	65637.11161
183.767	65653.15881
183.976	65682.98429
184.184	65696.76027
184.393	65623.36389
184.601	65682.98429
184.81	65563.86484
185.018	65687.57556
185.227	65625.65473
185.435	65705.94791
185.644	65609.62263
185.852	65751.93017
186.06	65607.33305
186.269	65607.33305
186.477	65602.75442
186.685	65650.86581
186.894	65561.57881
187.102	65646.28036
187.31	65577.58471
187.518	65650.86581
187.727	65735.828
187.935	65712.84056
188.143	65653.15881
188.351	65621.07323
188.559	65712.84056
188.768	65575.29762
188.976	65595.88782
189.184	65611.91239
189.392	65609.62263
189.6	65618.78275
189.808	65538.72827
190.016	65680.68894
190.224	65669.21488
190.432	65639.40353
190.64	65643.9879
190.848	65634.81987
191.056	65586.73484
191.264	65625.65473
191.472	65650.86581
191.679	65666.92061
191.887	65660.0389
192.095	65742.72782
192.303	65623.36389
192.511	65673.80395
192.719	65749.62931
192.926	65593.5993
193.134	65749.62931
193.342	65678.39376
193.55	65657.74535
193.757	65650.86581
193.965	65627.94574
194.173	65611.91239
194.38	65717.43657
194.588	65692.16755
194.796	65671.50932
195.003	65595.88782
195.211	65692.16755
195.418	65673.80395
195.626	65740.42769
195.833	65634.81987
196.041	65591.31097
196.248	65650.86581
196.456	65593.5993
196.663	65550.15134
196.871	65680.68894
197.078	65632.52832
197.285	65657.74535
197.493	65632.52832
197.7	65513.61298
197.908	65625.65473
198.115	65666.92061
198.322	65637.11161
198.529	65708.24527
198.737	65726.63081
198.944	65632.52832
199.151	65724.33198
199.358	65689.87146
199.566	65768.04143
199.773	65559.29296
199.98	65655.45199
200.187	65685.27983
200.394	65648.57299
200.601	65527.3096
200.809	65738.12775
201.016	65625.65473
201.223	65618.78275
201.43	65733.52842
201.637	65676.09877
201.844	65680.68894
202.051	65754.23122
202.258	65630.23694
202.465	65671.50932
202.672	65742.72782
202.878	65648.57299
203.085	65676.09877
203.292	65630.23694
203.499	65600.46537
203.706	65648.57299
203.913	65646.28036
204.12	65708.24527
204.326	65689.87146
204.533	65701.35372
204.74	65591.31097
204.947	65639.40353
205.153	65650.86581
205.36	65634.81987
205.567	65740.42769
205.773	65733.52842
205.98	65611.91239
206.187	65655.45199
206.393	65646.28036
206.6	65669.21488
206.806	65710.54282
207.013	65584.44704
207.22	65591.31097
207.426	65701.35372
207.633	65641.69562
207.839	65575.29762
208.046	65607.33305
208.252	65609.62263
208.458	65605.04365
208.665	65632.52832
208.871	65671.50932
209.078	65563.86484
209.284	65655.45199
209.49	65666.92061
209.697	65669.21488
209.903	65708.24527
210.109	65673.80395
210.316	65607.33305
210.522	65687.57556
210.728	65625.65473
210.934	65429.28873
211.14	65669.21488
211.347	65728.92983
211.553	65614.20233
211.759	65637.11161
211.965	65591.31097
212.171	65614.20233
212.377	65579.87197
212.583	65641.69562
212.789	65678.39376
212.996	65627.94574
213.202	65593.5993
213.408	65634.81987
213.614	65641.69562
213.82	65689.87146
214.025	65673.80395
214.231	65719.73486
214.437	65678.39376
214.643	65575.29762
214.849	65639.40353
215.055	65646.28036
215.261	65703.65072
215.467	65637.11161
215.672	65717.43657
215.878	65577.58471
216.084	65696.76027
216.29	65637.11161
216.496	65561.57881
216.701	65605.04365
216.907	65699.0569
217.113	65639.40353
217.318	65570.72398
217.524	65682.98429
217.73	65694.46382
217.935	65662.33262
218.141	65609.62263
218.346	65627.94574
218.552	65660.0389
218.758	65627.94574
218.963	65616.49245
219.169	65625.65473
219.374	65637.11161
219.58	65637.11161
219.785	65657.74535
219.991	65584.44704
220.196	65738.12775
220.401	65671.50932
220.607	65641.69562
220.812	65557.00729
221.017	65646.28036
