Data from Sun covered_USB4F034991__1__09-50-09-976.txt Node

Date: Tue Sep 23 09:50:09 EDT 2025
User: brett
Spectrometer: USB4F03499
Trigger mode: 4
Integration Time (sec): 5.000000E-1
Scans to average: 1
Electric dark correction enabled: true
Nonlinearity correction enabled: true
Boxcar width: 0
XAxis mode: Wavelengths
Number of Pixels in Spectrum: 3648
>>>>>Begin Spectral Data<<<<<
0	-627.52344
0.225	-627.52344
0.449	-627.52344
0.674	-676.80878
0.898	-604.08677
1.123	32.64348
1.347	-45.3033
1.572	30.3539
1.796	12.03079
2.021	21.19378
2.245	124.08122
2.469	32.64348
2.694	44.08872
2.918	-10.88928
3.143	-102.75129
3.367	-17.76882
3.591	-121.15896
3.815	69.25256
4.04	171.97363
4.264	-167.23022
4.488	105.81626
4.712	146.89669
4.936	0.57301
5.161	-245.7241
5.385	-248.03607
5.609	57.81711
5.833	244.80626
6.057	446.46735
6.281	41.80003
6.505	69.25256
6.729	119.51603
6.953	126.36355
7.177	96.67957
7.401	-111.95364
7.625	201.58305
7.849	-75.16194
8.073	119.51603
8.297	137.7726
8.521	-68.26874
8.744	-45.3033
8.968	-10.88928
9.192	-36.12223
9.416	73.82549
9.64	-38.41723
9.863	128.64571
10.087	-59.08037
10.311	-158.00999
10.535	-26.94408
10.758	197.02965
10.982	-125.76273
11.205	-56.78374
11.429	39.51116
11.653	73.82549
11.876	158.2979
12.1	-190.29395
12.323	-98.15122
12.547	105.81626
12.77	-20.06236
12.994	96.67957
13.217	98.964
13.441	-86.65428
13.664	206.13577
13.887	39.51116
14.111	297.04714
14.334	235.71175
14.557	-111.95364
14.781	224.33979
15.004	187.92078
15.227	-31.53279
15.451	2.86492
15.674	-45.3033
15.897	242.53289
16.12	92.11016
16.343	137.7726
16.567	-13.18228
16.79	89.8252
17.013	450.98411
17.236	-26.94408
17.459	137.7726
17.682	-15.47546
17.905	237.98563
18.128	101.24826
18.351	82.96924
18.574	183.36531
18.797	178.80916
19.02	32.64348
19.243	80.68357
19.466	181.08732
19.689	124.08122
19.911	-24.64999
20.134	-29.23834
20.357	222.06488
20.58	44.08872
20.803	-77.46004
21.025	137.7726
21.248	149.17728
21.471	235.71175
21.694	46.37723
21.916	-8.59646
22.139	92.11016
22.362	-139.57851
22.584	128.64571
22.807	57.81711
23.029	-224.92496
23.252	119.51603
23.475	1019.60544
23.697	-151.09678
23.92	-79.75832
24.142	128.64571
24.365	69.25256
24.587	-109.65277
24.809	60.10456
25.032	310.66056
25.254	94.39495
25.477	-65.97137
25.699	103.53235
25.921	76.1117
26.144	73.82549
26.366	-10.88928
26.588	308.39208
26.81	41.80003
27.033	-38.41723
27.255	89.8252
27.477	48.66556
27.699	101.24826
27.921	-38.41723
28.144	-114.25469
28.366	171.97363
28.588	-162.61973
28.81	-160.31476
29.032	34.93289
29.254	278.88651
29.476	-13.18228
29.698	48.66556
29.92	18.9033
30.142	21.19378
30.364	41.80003
30.586	174.25231
30.808	-160.31476
31.029	50.95372
31.251	-38.41723
31.473	135.49114
31.695	181.08732
31.917	-164.92488
32.139	187.92078
32.36	174.25231
32.582	-33.82742
32.804	48.66556
33.026	240.25934
33.247	-107.35209
33.469	-98.15122
33.691	-70.56629
33.912	-116.55593
34.134	169.69477
34.355	-88.9533
34.577	41.80003
34.798	-22.35609
35.02	55.52949
35.242	-45.3033
35.463	-137.27541
35.684	-91.2525
35.906	-52.19101
36.127	-6.30382
36.349	187.92078
36.57	146.89669
36.792	28.06414
37.013	73.82549
37.234	206.13577
37.456	222.06488
37.677	142.33499
37.898	98.964
38.119	-139.57851
38.341	-13.18228
38.562	-114.25469
38.783	25.7742
39.004	41.80003
39.225	-201.83288
39.447	-79.75832
39.668	-33.82742
39.889	-54.48728
40.11	-82.05679
40.331	228.88908
40.552	-72.86402
40.773	276.61568
40.994	-84.35544
41.215	16.61264
41.436	-31.53279
41.657	-88.9533
41.878	-52.19101
42.099	-167.23022
42.32	-13.18228
42.54	105.81626
42.761	151.4577
42.982	-17.76882
43.203	-211.06744
43.424	-33.82742
43.645	203.8595
43.865	149.17728
44.086	185.64313
44.307	-65.97137
44.527	-26.94408
44.748	7.44822
44.969	-95.85146
45.189	53.24169
45.41	-65.97137
45.631	203.8595
45.851	80.68357
46.072	-86.65428
46.292	156.01801
46.513	-86.65428
46.733	112.66694
46.954	269.80216
47.174	-206.44978
47.395	39.51116
47.615	128.64571
47.836	76.1117
48.056	-40.7124
48.276	-22.35609
48.497	208.41187
48.717	117.23318
48.937	89.8252
49.158	66.96582
49.378	-70.56629
49.598	119.51603
49.818	39.51116
50.038	142.33499
50.259	64.67891
50.479	-72.86402
50.699	80.68357
50.919	23.48408
51.139	57.81711
51.359	-45.3033
51.579	-61.37719
51.799	76.1117
52.02	-49.89493
52.24	85.25474
52.46	-45.3033
52.68	103.53235
52.899	-36.12223
53.119	62.39182
53.339	-82.05679
53.559	-10.88928
53.779	178.80916
53.999	299.31646
54.219	408.04866
54.439	-8.59646
54.658	-245.7241
54.878	203.8595
55.098	165.13654
55.318	126.36355
55.538	190.19825
55.757	94.39495
55.977	-222.6149
56.197	57.81711
56.416	-105.0516
56.636	151.4577
56.855	-59.08037
57.075	60.10456
57.295	-266.53873
57.514	-10.88928
57.734	101.24826
57.953	-31.53279
58.173	-98.15122
58.392	-84.35544
58.612	-4.01137
58.831	30.3539
59.051	153.73794
59.27	130.92769
59.489	-146.48891
59.709	94.39495
59.928	-134.9725
60.147	14.32181
60.367	89.8252
60.586	169.69477
60.805	-56.78374
61.024	-114.25469
61.244	37.22211
61.463	-84.35544
61.682	-20.06236
61.901	-128.06489
62.12	160.57762
62.34	25.7742
62.559	-15.47546
62.778	306.12342
62.997	160.57762
63.216	-294.31581
63.435	-107.35209
63.654	98.964
63.873	98.964
64.092	-68.26874
64.311	140.05388
64.53	247.07946
64.749	-134.9725
64.968	25.7742
65.187	-95.85146
65.405	-15.47546
65.624	57.81711
65.843	-29.23834
66.062	171.97363
66.281	185.64313
66.499	-24.64999
66.718	-132.66978
66.937	2.86492
67.156	46.37723
67.374	274.34467
67.593	153.73794
67.812	-24.64999
68.03	197.02965
68.249	73.82549
68.467	78.39772
68.686	87.54005
68.905	333.33625
69.123	-45.3033
69.342	-77.46004
69.56	-95.85146
69.779	-56.78374
69.997	219.78981
70.216	16.61264
70.434	-59.08037
70.652	114.95014
70.871	-17.76882
71.089	73.82549
71.307	-176.45345
71.526	-137.27541
71.744	-121.15896
71.962	-10.88928
72.181	-181.0662
72.399	-91.2525
72.617	30.3539
72.835	153.73794
73.054	-26.94408
73.272	303.8546
73.49	-45.3033
73.708	2.86492
73.926	-8.59646
74.144	-132.66978
74.362	21.19378
74.58	9.73959
74.798	-70.56629
75.016	87.54005
75.234	9.73959
75.452	89.8252
75.67	16.61264
75.888	34.93289
76.106	346.93369
76.324	-167.23022
76.542	-109.65277
76.76	114.95014
76.978	121.79871
77.196	-102.75129
77.413	-40.7124
77.631	240.25934
77.849	-160.31476
78.067	-15.47546
78.284	-100.45116
78.502	39.51116
78.72	-47.59902
78.938	2.86492
79.155	-130.36724
79.373	87.54005
79.59	71.53911
79.808	340.13572
80.026	-26.94408
80.243	-22.35609
80.461	315.19704
80.678	328.80245
80.896	103.53235
81.113	-77.46004
81.331	-109.65277
81.548	794.65612
81.766	-1.71909
81.983	306.12342
82.2	57.81711
82.418	-146.48891
82.635	242.53289
82.852	644.60393
83.07	219.78981
83.287	21.19378
83.504	94.39495
83.722	237.98563
83.939	119.51603
84.156	181.08732
84.373	-114.25469
84.591	30.3539
84.808	30.3539
85.025	101.24826
85.242	-40.7124
85.459	44.08872
85.676	199.30644
85.893	-111.95364
86.11	-40.7124
86.327	260.71511
86.544	-22.35609
86.761	48.66556
86.978	25.7742
87.195	62.39182
87.412	48.66556
87.629	-17.76882
87.846	-65.97137
88.063	383.16442
88.28	135.49114
88.497	-68.26874
88.713	119.51603
88.93	-70.56629
89.147	-162.61973
89.364	165.13654
89.58	60.10456
89.797	165.13654
90.014	-24.64999
90.231	303.8546
90.447	-29.23834
90.664	85.25474
90.881	-63.67419
91.097	208.41187
91.314	162.85717
91.53	-13.18228
91.747	21.19378
91.963	-146.48891
92.18	-63.67419
92.396	0.57301
92.613	103.53235
92.829	-43.00776
93.046	-160.31476
93.262	-77.46004
93.479	96.67957
93.695	44.08872
93.911	16.61264
94.128	-56.78374
94.344	126.36355
94.56	135.49114
94.777	-137.27541
94.993	-52.19101
95.209	-88.9533
95.426	446.46735
95.642	-121.15896
95.858	76.1117
96.074	-75.16194
96.29	-52.19101
96.506	-197.21674
96.723	317.46502
96.939	-22.35609
97.155	9.73959
97.371	-102.75129
97.587	-88.9533
97.803	71.53911
98.019	171.97363
98.235	178.80916
98.451	-88.9533
98.667	317.46502
98.883	34.93289
99.099	-98.15122
99.315	-47.59902
99.53	171.97363
99.746	-43.00776
99.962	21.19378
100.178	103.53235
100.394	32.64348
100.61	71.53911
100.825	-93.55189
101.041	119.51603
101.257	-49.89493
101.473	-36.12223
101.688	18.9033
101.904	-45.3033
102.12	-56.78374
102.335	-68.26874
102.551	57.81711
102.766	156.01801
102.982	-190.29395
103.198	165.13654
103.413	39.51116
103.629	-88.9533
103.844	80.68357
104.06	117.23318
104.275	156.01801
104.49	231.16348
104.706	89.8252
104.921	1790.75783
105.137	23.48408
105.352	151.4577
105.567	-15.47546
105.783	71.53911
105.998	57.81711
106.213	217.51456
106.429	-100.45116
106.644	44.08872
106.859	-63.67419
107.074	527.67098
107.29	158.2979
107.505	-162.61973
107.72	212.96356
107.935	260.71511
108.15	110.38355
108.365	-187.98673
108.58	12.03079
108.795	137.7726
109.01	-6.30382
109.226	-56.78374
109.441	335.60291
109.656	-61.37719
109.871	153.73794
110.085	-54.48728
110.3	46.37723
110.515	128.64571
110.73	128.64571
110.945	32.64348
111.16	151.4577
111.375	-167.23022
111.59	-174.14736
111.804	-22.35609
112.019	-79.75832
112.234	-187.98673
112.449	-146.48891
112.663	199.30644
112.878	137.7726
113.093	-160.31476
113.308	103.53235
113.522	117.23318
113.737	-213.37655
113.951	-105.0516
114.166	71.53911
114.381	140.05388
114.595	76.1117
114.81	328.80245
115.024	-98.15122
115.239	-20.06236
115.453	-148.79275
115.668	-40.7124
115.882	-13.18228
116.097	-194.90896
116.311	-174.14736
116.525	69.25256
116.74	-259.5988
116.954	212.96356
117.169	12.03079
117.383	78.39772
117.597	-93.55189
117.811	-95.85146
118.026	183.36531
118.24	340.13572
118.454	96.67957
118.668	290.23816
118.883	-36.12223
119.097	12.03079
119.311	2.86492
119.525	-45.3033
119.739	25.7742
119.953	-6.30382
120.167	278.88651
120.381	37.22211
120.595	124.08122
120.809	80.68357
121.023	2.86492
121.237	-185.6797
121.451	-123.46075
121.665	64.67891
121.879	76.1117
122.093	253.89805
122.307	-148.79275
122.521	-1.71909
122.735	210.6878
122.949	-61.37719
123.163	-224.92496
123.376	53.24169
123.59	394.47789
123.804	64.67891
124.018	-111.95364
124.231	41.80003
124.445	-72.86402
124.659	208.41187
124.872	96.67957
125.086	292.50799
125.3	-17.76882
125.513	89.8252
125.727	178.80916
125.94	9.73959
126.154	-121.15896
126.368	-109.65277
126.581	25.7742
126.795	-79.75832
127.008	-171.84146
127.222	34.93289
127.435	-148.79275
127.648	-52.19101
127.862	0.57301
128.075	-86.65428
128.289	-59.08037
128.502	-93.55189
128.715	-59.08037
128.929	-107.35209
129.142	21.19378
129.355	0.57301
129.568	55.52949
129.782	-77.46004
129.995	87.54005
130.208	-77.46004
130.421	62.39182
130.634	-111.95364
130.848	98.964
131.061	500.62611
131.274	62.39182
131.487	-75.16194
131.7	-20.06236
131.913	162.85717
132.126	-47.59902
132.339	240.25934
132.552	353.73017
132.765	82.96924
132.978	215.23915
133.191	28.06414
133.404	-70.56629
133.617	-176.45345
133.83	92.11016
134.043	-98.15122
134.255	-164.92488
134.468	185.64313
134.681	57.81711
134.894	-84.35544
135.107	-134.9725
135.319	-22.35609
135.532	-40.7124
135.745	-29.23834
135.958	-118.85735
136.17	30.3539
136.383	176.53082
136.596	-123.46075
136.808	-88.9533
137.021	-1.71909
137.233	-63.67419
137.446	-102.75129
137.659	-107.35209
137.871	642.35918
138.084	151.4577
138.296	233.4377
138.509	-10.88928
138.721	-132.66978
138.934	-174.14736
139.146	98.964
139.358	18.9033
139.571	439.69098
139.783	130.92769
139.996	-77.46004
140.208	-54.48728
140.42	169.69477
140.632	-8.59646
140.845	-6.30382
141.057	-45.3033
141.269	126.36355
141.481	7.44822
141.694	-213.37655
141.906	-167.23022
142.118	16.61264
142.33	217.51456
142.542	-52.19101
142.754	87.54005
142.967	208.41187
143.179	14.32181
143.391	237.98563
143.603	32.64348
143.815	167.41574
144.027	-178.75973
144.239	258.44293
144.451	18.9033
144.663	2.86492
144.875	174.25231
145.086	299.31646
145.298	28.06414
145.51	-252.66059
145.722	181.08732
145.934	-52.19101
146.146	55.52949
146.358	96.67957
146.569	-68.26874
146.781	9.73959
146.993	-194.90896
147.205	171.97363
147.416	21.19378
147.628	-17.76882
147.84	21.19378
148.051	-98.15122
148.263	7.44822
148.475	-52.19101
148.686	-102.75129
148.898	199.30644
149.109	149.17728
149.321	-271.16632
149.532	16.61264
149.744	274.34467
149.955	82.96924
150.167	-77.46004
150.378	-190.29395
150.59	-79.75832
150.801	12.03079
151.013	-10.88928
151.224	-43.00776
151.435	73.82549
151.647	331.06943
151.858	62.39182
152.069	212.96356
152.281	53.24169
152.492	151.4577
152.703	-141.88179
152.914	16.61264
153.126	-84.35544
153.337	28.06414
153.548	-1.71909
153.759	-61.37719
153.97	-208.75852
154.181	-52.19101
154.392	110.38355
154.604	-130.36724
154.815	-114.25469
155.026	50.95372
155.237	80.68357
155.448	247.07946
155.659	251.62535
155.87	30.3539
156.081	210.6878
156.292	-88.9533
156.502	-59.08037
156.713	108.09999
156.924	48.66556
157.135	-125.76273
157.346	110.38355
157.557	247.07946
157.768	-22.35609
157.978	-61.37719
158.189	-45.3033
158.4	-171.84146
158.611	108.09999
158.821	251.62535
159.032	80.68357
159.243	121.79871
159.453	21.19378
159.664	-49.89493
159.875	144.61593
160.085	-43.00776
160.296	85.25474
160.507	-63.67419
160.717	-43.00776
160.928	73.82549
161.138	-176.45345
161.349	48.66556
161.559	46.37723
161.77	-63.67419
161.98	-26.94408
162.19	-22.35609
162.401	2.86492
162.611	240.25934
162.822	16.61264
163.032	-75.16194
163.242	-109.65277
163.453	16.61264
163.663	-213.37655
163.873	276.61568
164.084	-75.16194
164.294	53.24169
164.504	98.964
164.714	-201.83288
164.924	153.73794
165.135	-114.25469
165.345	-61.37719
165.555	2.86492
165.765	183.36531
165.975	144.61593
166.185	-43.00776
166.395	80.68357
166.605	98.964
166.815	-111.95364
167.025	-132.66978
167.235	-36.12223
167.445	-128.06489
167.655	-213.37655
167.865	-146.48891
168.075	-79.75832
168.285	16.61264
168.495	-15.47546
168.705	89.8252
168.915	208.41187
169.124	-15.47546
169.334	57.81711
169.544	-75.16194
169.754	-75.16194
169.964	240.25934
170.173	7.44822
170.383	96.67957
170.593	-164.92488
170.802	149.17728
171.012	-121.15896
171.222	-236.47813
171.431	-105.0516
171.641	-79.75832
171.851	-167.23022
172.06	-204.14124
172.27	-107.35209
172.479	153.73794
172.689	-45.3033
172.898	181.08732
173.108	-128.06489
173.317	414.83184
173.527	-72.86402
173.736	-45.3033
173.945	190.19825
174.155	112.66694
174.364	28.06414
174.574	32.64348
174.783	32.64348
174.992	101.24826
175.202	240.25934
175.411	133.2095
175.62	-54.48728
175.829	-128.06489
176.039	-17.76882
176.248	208.41187
176.457	5.15666
176.666	457.75805
176.875	-82.05679
177.084	112.66694
177.294	101.24826
177.503	7.44822
177.712	219.78981
177.921	144.61593
178.13	-20.06236
178.339	-162.61973
178.548	-176.45345
178.757	25.7742
178.966	16.61264
179.175	39.51116
179.384	-160.31476
179.593	16.61264
179.802	-181.0662
180.011	160.57762
180.219	46.37723
180.428	-84.35544
180.637	-52.19101
180.846	87.54005
181.055	-22.35609
181.263	-102.75129
181.472	-61.37719
181.681	37.22211
181.89	208.41187
182.098	256.17057
182.307	16.61264
182.516	53.24169
182.724	-70.56629
182.933	174.25231
183.142	57.81711
183.35	233.4377
183.559	41.80003
183.767	44.08872
183.976	-15.47546
184.184	-36.12223
184.393	103.53235
184.601	46.37723
184.81	114.95014
185.018	197.02965
185.227	69.25256
185.435	-54.48728
185.644	-17.76882
185.852	-79.75832
186.06	208.41187
186.269	-88.9533
186.477	178.80916
186.685	57.81711
186.894	224.33979
187.102	-33.82742
187.31	167.41574
187.518	149.17728
187.727	-98.15122
187.935	-116.55593
188.143	-148.79275
188.351	290.23816
188.559	-45.3033
188.768	260.71511
188.976	-49.89493
189.184	48.66556
189.392	98.964
189.6	48.66556
189.808	383.16442
190.016	185.64313
190.224	-93.55189
190.432	146.89669
190.64	-148.79275
190.848	-82.05679
191.056	137.7726
191.264	-10.88928
191.472	-84.35544
191.679	-36.12223
191.887	144.61593
192.095	-125.76273
192.303	-56.78374
192.511	105.81626
192.719	-36.12223
192.926	23.48408
193.134	-280.4238
193.342	62.39182
193.55	197.02965
193.757	76.1117
193.965	30.3539
194.173	217.51456
194.38	108.09999
194.588	-146.48891
194.796	16.61264
195.003	117.23318
195.211	-8.59646
195.418	-38.41723
195.626	-123.46075
195.833	114.95014
196.041	226.61452
196.248	0.57301
196.456	121.79871
196.663	351.46484
196.871	-217.99535
197.078	-17.76882
197.285	7.44822
197.493	-93.55189
197.7	260.71511
197.908	82.96924
198.115	-77.46004
198.322	-47.59902
198.529	94.39495
198.737	-254.97313
198.944	-84.35544
199.151	92.11016
199.358	14.32181
199.566	-187.98673
199.773	-15.47546
199.98	60.10456
200.187	12.03079
200.394	66.96582
200.601	146.89669
200.809	-31.53279
201.016	62.39182
201.223	60.10456
201.43	-139.57851
201.637	-45.3033
201.844	-215.68585
202.051	-192.60136
202.258	199.30644
202.465	-153.40099
202.672	-132.66978
202.878	-6.30382
203.085	-17.76882
203.292	-4.01137
203.499	103.53235
203.706	25.7742
203.913	-153.40099
204.12	-47.59902
204.326	-43.00776
204.533	117.23318
204.74	144.61593
204.947	140.05388
205.153	126.36355
205.36	85.25474
205.567	-38.41723
205.773	-164.92488
205.98	167.41574
206.187	-61.37719
206.393	-8.59646
206.6	87.54005
206.806	-79.75832
207.013	48.66556
207.22	103.53235
207.426	0.57301
207.633	119.51603
207.839	9.73959
208.046	2.86492
208.252	25.7742
208.458	130.92769
208.665	39.51116
208.871	-68.26874
209.078	572.69518
209.284	28.06414
209.49	-49.89493
209.697	-151.09678
209.903	-68.26874
210.109	-194.90896
210.316	78.39772
210.522	0.57301
210.728	-91.2525
210.934	491.60606
211.14	-10.88928
211.347	-222.6149
211.553	121.79871
211.759	71.53911
211.965	228.88908
212.171	-68.26874
212.377	430.65357
212.583	76.1117
212.789	-114.25469
212.996	53.24169
213.202	299.31646
213.408	-24.64999
213.614	16.61264
213.82	-13.18228
214.025	-26.94408
214.231	103.53235
214.437	-171.84146
214.643	87.54005
214.849	140.05388
215.055	39.51116
215.261	-8.59646
215.467	9.73959
215.672	137.7726
215.878	117.23318
216.084	-160.31476
216.29	187.92078
216.496	197.02965
216.701	98.964
216.907	-201.83288
217.113	-1.71909
217.318	153.73794
217.524	94.39495
217.73	124.08122
217.935	0.57301
218.141	183.36531
218.346	240.25934
218.552	130.92769
218.758	260.71511
218.963	183.36531
219.169	333.33625
219.374	237.98563
219.58	-79.75832
219.785	30.3539
219.991	276.61568
220.196	-217.99535
220.401	-6.30382
220.607	117.23318
220.812	324.26798
221.017	96.67957
221.223	82.96924
221.428	41.80003
221.633	290.23816
221.839	101.24826
222.044	-100.45116
222.249	194.75269
222.454	46.37723
222.66	60.10456
222.865	187.92078
223.07	96.67957
223.275	-70.56629
223.48	48.66556
223.686	140.05388
223.891	28.06414
224.096	-8.59646
224.301	108.09999
224.506	-33.82742
224.711	215.23915
224.916	231.16348
225.121	2.86492
225.326	-181.0662
225.531	-294.31581
225.736	71.53911
225.941	-192.60136
226.146	62.39182
226.351	41.80003
226.555	160.57762
226.76	12.03079
226.965	-61.37719
227.17	-121.15896
227.375	82.96924
227.58	-160.31476
227.784	12.03079
227.989	-137.27541
228.194	-52.19101
228.399	212.96356
228.603	0.57301
228.808	126.36355
229.013	94.39495
229.217	69.25256
229.422	60.10456
229.627	-102.75129
229.831	16.61264
230.036	124.08122
230.24	-107.35209
230.445	101.24826
230.649	73.82549
230.854	226.61452
231.058	89.8252
231.263	0.57301
231.467	149.17728
231.672	-54.48728
231.876	-52.19101
232.081	32.64348
232.285	126.36355
232.489	-31.53279
232.694	-22.35609
232.898	-13.18228
233.102	233.4377
233.307	-79.75832
233.511	-77.46004
233.715	187.92078
233.919	149.17728
234.124	7.44822
234.328	-56.78374
234.532	326.5353
234.736	251.62535
234.94	69.25256
235.145	16.61264
235.349	146.89669
235.553	110.38355
235.757	126.36355
235.961	-24.64999
236.165	-22.35609
236.369	199.30644
236.573	-43.00776
236.777	-75.16194
236.981	-59.08037
237.185	371.84685
237.389	-84.35544
237.593	-88.9533
237.797	128.64571
238.001	162.85717
238.205	256.17057
238.409	-38.41723
238.612	-178.75973
238.816	536.68087
239.02	18.9033
239.224	-243.41232
239.428	215.23915
239.631	57.81711
239.835	178.80916
240.039	0.57301
240.243	185.64313
240.446	475.81482
240.65	-130.36724
240.854	-141.88179
241.057	80.68357
241.261	-10.88928
241.464	-86.65428
241.668	224.33979
241.872	-65.97137
242.075	-29.23834
242.279	48.66556
242.482	23.48408
242.686	112.66694
242.889	69.25256
243.093	80.68357
243.296	178.80916
243.499	9.73959
243.703	324.26798
243.906	-98.15122
244.11	-52.19101
