Data from mildly cloudy_Subt2__4__14-19-35-371.txt Node

Date: Mon Oct 13 14:19:35 EDT 2025
User: brett
Spectrometer: USB4F03499
Trigger mode: 4
Integration Time (sec): 4.400000E-4
Scans to average: 1
Electric dark correction enabled: true
Nonlinearity correction enabled: true
Boxcar width: 0
XAxis mode: Wavelengths
Number of Pixels in Spectrum: 3648
>>>>>Begin Spectral Data<<<<<
345.386	61.98466
345.605	61.98466
345.824	61.98466
346.044	92.50832
346.263	11.19971
346.482	-41.82693
346.701	19.08133
346.92	-15.89251
347.139	-38.50363
347.358	-13.63347
347.577	-24.91153
347.796	5.55032
348.015	54.08477
348.234	-6.86322
348.453	-20.4032
348.672	32.61686
348.891	50.67993
349.11	-14.76834
349.329	8.9302
349.548	41.689
349.767	15.70261
349.986	-19.285
350.205	-33.92431
350.424	17.97391
350.643	87.91262
350.862	61.98226
351.08	-13.63928
351.299	-9.11504
351.518	-13.63664
351.737	28.12897
351.956	4.41878
352.174	17.94817
352.393	15.71418
352.612	11.18539
352.831	26.97653
353.049	11.19188
353.268	16.83844
353.487	21.34385
353.705	7.80233
353.924	-10.2409
354.143	-3.48044
354.361	39.40292
354.58	-17.0246
354.798	57.5011
355.017	4.41419
355.236	64.24457
355.454	34.87413
355.673	50.67797
355.891	-1.22215
356.11	-7.98848
356.328	54.03043
356.547	-6.86481
356.765	24.73117
356.984	11.18842
357.202	57.47653
357.42	49.55641
357.639	43.90836
357.857	26.96925
358.076	39.37551
358.294	-18.14662
358.512	-32.81627
358.731	-21.51694
358.949	16.81439
359.167	13.44127
359.386	26.97237
359.604	28.08877
359.822	37.13732
360.04	43.88632
360.259	3.289
360.477	37.15026
360.695	-11.37426
360.913	-1.22158
361.131	-4.60504
361.35	-1.22267
361.568	36.01537
361.786	39.36489
362.004	-24.91153
362.222	65.34421
362.44	15.68807
362.658	49.56986
362.876	3.28811
363.094	14.57061
363.312	40.51807
363.53	49.54491
363.749	-32.80359
363.967	-20.40241
364.184	51.78522
364.402	21.34468
364.62	-11.38617
364.838	13.42473
365.056	12.32358
365.274	7.80082
365.492	22.46565
365.71	56.3204
365.928	-0.09397
366.146	56.34222
366.364	14.55323
366.581	11.18798
366.799	15.69714
367.017	-37.33258
367.235	-6.86004
367.453	-17.02064
367.67	17.96066
367.888	4.42101
368.106	32.62948
368.323	28.08769
368.541	66.4455
368.759	12.31642
368.977	34.88087
369.194	-55.35556
369.412	56.33349
369.629	93.56316
369.847	12.30882
370.065	11.19405
370.282	15.70504
370.5	11.19015
370.717	38.23087
370.935	4.41947
371.152	37.15603
371.37	-7.99343
371.588	-28.30067
371.805	31.51513
372.022	31.47372
372.24	60.84534
372.457	-2.34951
372.675	26.97862
372.892	58.59514
373.11	56.31387
373.327	24.73022
373.544	51.81526
373.762	-3.47694
373.979	-24.90096
374.196	-5.74069
374.414	33.78343
374.631	14.5723
374.848	67.60855
375.066	28.08553
375.283	28.10502
375.5	-9.11891
375.717	13.44023
375.935	45.04622
376.152	41.62289
376.369	30.38328
376.586	-9.12103
376.803	-0.09394
377.02	36.01676
377.238	15.69775
377.455	19.10427
377.672	49.49528
377.889	32.66117
378.106	10.06154
378.323	56.34441
378.54	49.53343
378.757	-10.24603
378.974	-1.22295
379.191	-4.60593
379.408	-2.35033
379.625	61.96306
379.842	17.96275
380.059	23.60504
380.276	77.75044
380.493	2.1628
380.71	23.59956
380.927	76.61781
381.143	3.29116
381.36	38.28259
381.577	-22.65977
381.794	28.10068
382.011	5.54859
382.228	-2.3496
382.444	-50.82872
382.661	37.14738
382.878	32.62569
383.095	34.87413
383.311	55.206
383.528	4.41964
383.745	30.36798
383.962	13.44438
384.178	-9.11399
384.395	14.57625
384.612	69.88968
384.828	-9.10978
385.045	13.44438
385.261	11.18409
385.478	8.94373
385.695	28.10068
385.911	28.08877
386.128	-0.09399
386.344	102.63816
386.561	39.43199
386.777	31.4713
386.994	-54.24348
387.21	-6.8603
387.427	33.73636
387.643	38.29151
387.86	6.67364
388.076	29.22677
388.292	-0.09403
388.509	56.30734
388.725	65.35685
388.942	60.83592
389.158	66.49434
389.374	14.57061
389.591	-13.63084
389.807	21.3356
390.023	7.79512
390.239	-18.13052
390.456	36.00144
390.672	26.97029
390.888	19.08945
391.104	14.5723
391.321	-17.01932
391.537	75.48824
391.753	31.47615
391.969	37.12154
392.185	40.53062
392.401	1.0336
392.618	17.94333
392.834	20.21906
393.05	15.70443
393.266	55.16546
393.482	22.46131
393.698	38.28259
393.914	7.80595
394.13	52.88959
394.346	-13.62558
394.562	25.83514
394.778	24.73213
394.994	45.04099
395.21	-13.62243
395.426	4.41947
395.642	42.76934
395.858	59.69489
396.073	36.03913
396.289	14.55938
396.505	17.95302
396.721	11.18972
396.937	1.0338
397.153	61.93672
397.369	2.1628
397.584	101.48757
397.8	26.96198
398.016	43.8914
398.232	2.16305
398.447	13.42833
398.663	4.41725
398.879	13.43867
399.094	45.01662
399.31	-24.91057
399.526	25.83514
399.741	40.51494
399.957	-36.22451
400.173	75.53795
400.388	4.41947
400.604	7.80625
400.82	34.86202
401.035	43.91686
401.251	35.98478
401.466	23.6023
401.682	68.71434
401.897	-19.2656
402.113	-11.36244
402.328	51.83536
402.544	-36.18385
402.759	48.40459
402.974	23.60413
403.19	23.57862
403.405	39.37096
403.621	54.06801
403.836	32.62821
404.051	35.99033
404.267	48.42143
404.482	65.29128
404.697	95.7165
404.913	47.29408
405.128	48.4102
405.343	12.31499
405.559	34.88492
405.774	42.76604
405.989	-15.87473
406.204	41.65505
406.42	64.18001
406.635	43.92878
406.85	16.81115
407.065	8.92848
407.28	74.34721
407.495	56.28344
407.71	32.61057
407.926	41.64216
408.141	65.34674
408.356	59.67185
408.571	82.24094
408.786	56.30734
409.001	20.20188
409.216	32.59675
409.431	73.22638
409.646	34.8674
409.861	94.62027
410.076	23.575
410.291	68.6614
410.506	70.95666
410.721	12.31452
410.936	29.24032
411.15	21.31672
411.365	51.7573
411.58	60.78896
411.795	22.44747
412.01	81.09272
412.225	7.79932
412.439	29.22452
412.654	41.61008
412.869	51.75133
413.084	58.53403
413.299	81.09898
413.513	80.013
413.728	25.84909
413.943	35.98201
414.157	69.80599
414.372	11.18065
414.587	5.54666
414.801	68.60611
415.016	132.88068
415.231	77.75646
415.445	117.15342
415.66	29.23016
415.874	32.57797
416.089	32.62064
416.304	86.83985
416.518	52.88552
416.733	49.48768
416.947	32.61308
417.162	77.65466
417.376	64.14298
417.59	57.39442
417.805	88.94311
418.019	85.58993
418.234	66.41222
418.448	37.10153
418.663	97.98596
418.877	12.29747
419.091	73.15028
419.306	64.16024
419.52	60.75624
419.734	72.06639
419.949	48.31918
420.163	83.31584
420.377	94.50771
420.591	40.47905
420.806	85.52419
421.02	113.78659
421.234	65.27872
421.448	37.08018
421.663	121.71458
421.877	29.18081
422.091	84.43164
422.305	61.90094
422.519	59.69258
422.733	127.28279
422.947	62.96652
423.161	74.24438
423.376	82.20607
423.59	77.59521
423.804	55.16334
424.018	55.14846
424.232	70.85045
424.446	55.11244
424.66	78.7588
424.874	109.18407
425.088	104.75014
425.302	50.56516
425.515	90.05806
425.729	68.59562
425.943	134.03593
426.157	102.44028
426.371	26.9599
426.585	65.22118
426.799	66.33843
427.013	88.92262
427.226	69.7497
427.44	73.05525
427.654	119.26628
427.868	32.57922
428.081	112.50139
428.295	64.15284
428.509	100.24454
428.723	75.40396
428.936	38.1564
429.15	74.31569
429.364	111.4159
429.577	100.23683
429.791	32.56177
430.005	93.39043
430.218	111.44152
430.432	145.09628
430.645	72.00825
430.859	58.54306
431.073	100.12156
431.286	103.62078
431.5	90.02352
431.713	51.72353
431.927	55.12937
432.14	120.42227
432.354	109.15063
432.567	90.08922
432.781	103.573
432.994	120.51472
433.207	84.32507
433.421	88.81051
433.634	132.90621
433.848	96.73056
434.061	147.47123
434.274	91.13429
434.488	147.36418
434.701	74.24154
434.914	119.33022
435.127	163.18561
435.341	139.6154
435.554	127.17539
435.767	89.05298
435.98	92.26234
436.194	89.95473
436.407	143.01471
436.62	164.27718
436.833	145.17384
437.046	131.72091
437.259	135.062
437.473	154.10046
437.686	167.69637
437.899	138.4277
438.112	107.96046
438.325	117.02313
438.538	145.09628
438.751	138.38539
438.964	8.89886
439.177	133.81051
439.39	164.15209
439.603	247.52532
439.816	168.72266
440.029	179.96362
440.242	163.024
440.455	194.40536
440.668	210.28116
440.881	200.4042
441.094	205.84366
441.306	198.068
441.519	237.16511
441.732	197.86449
441.945	290.9764
442.158	187.85205
442.37	219.3148
442.583	166.52252
442.796	250.61162
443.009	256.12173
443.222	247.28089
443.434	194.56773
443.647	247.09404
443.86	231.45943
444.072	276.27733
444.285	268.53936
444.498	276.27733
444.71	263.00371
444.923	269.76034
445.136	237.03956
445.348	191.16657
445.561	198.84992
445.773	276.75922
445.986	197.97737
446.198	250.34708
446.411	260.6563
446.623	318.5053
446.836	275.05545
447.048	280.75026
447.261	284.2009
447.473	288.30575
447.686	278.16921
447.898	278.2629
448.11	334.55019
448.323	291.06075
448.535	305.14513
448.748	290.45253
448.96	296.32241
449.172	342.54686
449.385	274.90066
449.597	423.7786
449.809	356.71715
450.021	385.70598
450.234	371.40929
450.446	305.06529
450.658	273.95809
450.87	349.81453
451.083	349.94507
451.295	368.68281
451.507	336.3931
451.719	364.68814
451.931	359.0958
452.143	375.66043
452.356	357.76577
452.568	434.83182
452.78	308.35641
452.992	350.68179
453.204	418.96574
453.416	503.2295
453.628	421.70853
453.84	369.65981
454.052	345.57331
454.264	437.95952
454.476	372.01129
454.688	454.60719
454.9	475.03292
455.112	424.29419
455.324	423.74705
455.536	465.0756
455.747	413.40099
455.959	426.32976
456.171	416.21732
456.383	411.58799
456.595	401.4537
456.807	382.13492
457.018	392.28969
457.23	441.29648
457.442	424.56094
457.654	511.3666
457.865	401.24449
458.077	446.70873
458.289	388.7024
458.501	429.01156
458.712	511.47952
458.924	579.19339
459.136	364.97504
459.347	501.76405
459.559	407.86552
459.77	564.43556
459.982	489.35822
460.194	542.21212
460.405	434.14133
460.617	502.09841
460.828	541.10363
461.04	570.85302
461.251	456.34324
461.463	520.61183
461.674	591.37875
461.886	588.34954
462.097	485.73772
462.309	558.20532
462.52	485.73772
462.731	684.05757
462.943	489.50304
463.154	513.62423
463.366	444.01128
463.577	571.04013
463.788	562.63189
464	598.52052
464.211	645.36913
464.422	712.8535
464.634	692.31078
464.845	651.6234
465.056	719.25305
465.267	683.17274
465.478	562.48713
465.69	755.52773
465.901	665.16283
466.112	688.77221
466.323	740.82327
466.534	846.56315
466.745	657.6113
466.957	813.50534
467.168	714.72564
467.379	772.40355
467.59	688.39902
467.801	674.39798
468.012	721.72057
468.223	819.84386
468.434	726.03767
468.645	885.14788
468.856	846.10175
469.067	790.86655
469.278	739.97219
469.489	901.04445
469.7	668.06663
469.911	794.13922
470.122	862.86664
470.333	988.98492
470.543	816.11541
470.754	842.24641
470.965	870.34039
471.176	1008.26167
471.387	919.91881
471.598	930.99927
471.808	968.90078
472.019	975.09426
472.23	902.47528
472.441	939.86014
472.651	995.69209
472.862	1010.23806
473.073	940.75778
473.283	1065.95474
473.494	864.0538
473.705	1019.97964
473.915	932.5199
474.126	1100.45327
474.337	1019.93341
474.547	1155.2002
474.758	1078.79113
474.968	1059.43408
475.179	1086.54
475.389	1062.56029
475.6	1028.27434
475.81	1205.00434
476.021	1177.05034
476.231	1343.66916
476.442	1170.44029
476.652	1152.64662
476.863	1124.19869
477.073	1225.19624
477.284	1176.65436
477.494	1232.79851
477.704	1304.48818
477.915	1582.62105
478.125	1251.82626
478.335	1422.26728
478.546	1441.43508
478.756	1449.23803
478.966	1361.89098
479.177	1442.25166
479.387	1453.81932
479.597	1555.38079
479.807	1528.39644
480.018	1541.72146
480.228	1572.40871
480.438	1601.58341
480.648	1635.19862
480.858	1587.76416
481.068	1532.28476
481.279	1608.64328
481.489	1595.62654
481.699	1788.86727
481.909	1655.15268
482.119	1936.56372
482.329	1793.6483
482.539	1879.62542
482.749	1726.24181
482.959	1946.09883
483.169	1834.04276
483.379	2002.40049
483.589	1986.72565
483.799	2023.08417
484.009	1925.5503
484.219	1994.00008
484.429	2004.21971
484.639	1976.48925
484.849	2032.05031
485.059	2126.48939
485.268	2075.44781
485.478	2231.70328
485.688	2006.66255
485.898	2124.82472
486.108	2143.75659
486.317	2221.32203
486.527	2172.22347
486.737	2255.99564
486.947	2196.96785
487.156	2316.40568
487.366	2158.96236
487.576	2251.14183
487.785	2114.44249
487.995	2206.02577
488.205	2300.02789
488.414	2422.20393
488.624	2212.3188
488.834	2364.09707
489.043	2226.69363
489.253	2237.40993
489.462	2218.5202
489.672	2432.58044
489.882	2377.9686
490.091	2439.2405
490.301	2404.81852
490.51	2518.34991
490.72	2372.46799
490.929	2357.22691
491.138	2472.71662
491.348	2389.81138
491.557	2411.74409
491.767	2509.32552
491.976	2391.47131
492.185	2432.94146
492.395	2290.38732
492.604	2528.68218
492.813	2456.30377
493.023	2527.61488
493.232	2379.22255
493.441	2578.37585
493.651	2493.80985
493.86	2536.27115
494.069	2470.38566
494.278	2605.3206
494.488	2580.80601
494.697	2585.82606
494.906	2473.13365
495.115	2649.57618
495.324	2634.82239
495.533	2679.1175
495.743	2569.50673
495.952	2706.89635
496.161	2628.07961
496.37	2718.68336
496.579	2749.20108
496.788	2697.75991
496.997	2835.02248
497.206	2772.03934
497.415	2712.4627
497.624	2661.56731
497.833	2724.01191
498.042	2748.96157
498.251	2712.54157
498.46	2841.12927
498.669	2705.63651
498.878	2771.02149
499.087	2696.47329
499.296	2820.41471
499.504	2660.95335
499.713	2740.68093
499.922	2690.56427
500.131	2685.25666
500.34	2709.36372
500.549	2768.34164
500.757	2614.12403
500.966	2833.82806
501.175	2651.05911
501.384	2729.71865
501.592	2538.17966
501.801	2673.43947
502.01	2609.45273
502.218	2635.82847
502.427	2655.73672
502.636	2657.13847
502.844	2538.07573
503.053	2613.66139
503.262	2646.81798
503.47	2621.07556
503.679	2616.76982
503.887	2691.35238
504.096	2586.05432
504.304	2751.13053
504.513	2728.705
504.721	2783.65487
504.93	2751.00943
505.138	2877.99708
505.347	2820.01591
505.555	2890.33112
505.764	2963.69426
505.972	3029.19287
506.18	2826.85226
506.389	3168.91974
506.597	2972.67275
506.806	3167.80818
507.014	3142.08662
507.222	3095.28846
507.431	3198.55634
507.639	3341.91399
507.847	3256.23128
508.055	3338.60648
508.264	3396.62882
508.472	3447.43823
508.68	3434.80167
508.888	3578.10754
509.096	3577.55613
509.305	3726.87609
509.513	3663.1709
509.721	3775.5782
509.929	3659.6403
510.137	3798.97843
510.345	3851.10897
510.553	3935.37403
510.762	4001.93829
510.97	3953.17625
511.178	3968.1415
511.386	4101.03233
511.594	4105.64742
511.802	4165.32038
512.01	4175.2705
512.218	4276.91095
512.426	4279.08018
512.634	4283.79089
512.842	4221.71328
513.049	4204.32394
513.257	4281.10883
513.465	4242.63253
513.673	4278.45183
513.881	4325.8865
514.089	4199.45734
514.297	4354.77716
514.504	4329.50548
514.712	4361.53311
514.92	4264.67259
515.128	4302.21556
515.336	4281.04811
515.543	4199.43243
515.751	4226.6531
515.959	4258.59187
516.166	4200.48978
516.374	4296.39698
516.582	4191.85984
516.789	4221.84532
516.997	4226.95107
517.205	4229.93204
517.412	4221.29403
517.62	4284.46399
517.827	4178.2745
518.035	4138.25116
518.243	4106.87645
518.45	4161.01366
518.658	4019.43333
518.865	4090.88462
519.073	4187.95647
519.28	4076.20442
519.488	4115.19607
519.695	4077.12213
519.902	4029.29601
520.11	4077.33268
520.317	3979.13536
520.525	4072.29801
520.732	4067.3728
520.939	3978.86723
521.147	3941.44265
521.354	4029.80366
521.561	4099.18348
521.769	4015.30389
521.976	3900.33945
522.183	3928.90417
522.391	3923.5517
522.598	4012.11232
522.805	3956.92378
523.012	4041.09001
523.219	3952.65034
523.427	4010.62688
523.634	3865.06367
523.841	3953.94014
524.048	3874.98167
524.255	3958.17192
524.462	3860.89157
524.669	3926.24785
524.877	3901.25234
525.084	3943.07325
525.291	3703.96187
525.498	3929.15633
525.705	3838.3179
525.912	3922.23481
526.119	3703.28154
526.326	3953.27659
526.533	3800.40241
526.74	3939.7878
526.947	3721.84943
527.153	3903.16281
527.36	3808.44787
527.567	4041.51424
527.774	3813.21848
527.981	3837.74591
528.188	3747.69312
528.395	3841.44773
528.602	3814.18253
528.808	3829.38783
529.015	3732.27064
529.222	3973.30644
529.429	3695.28195
529.635	3947.18583
529.842	3813.15263
530.049	3713.21133
530.256	3679.67219
530.462	3910.93994
530.669	3769.63047
530.876	3806.97892
531.082	3780.24907
531.289	3810.55516
531.495	3681.02993
531.702	3733.68598
531.909	3771.44734
532.115	3858.61247
532.322	3705.15142
532.528	3755.70649
532.735	3737.77133
532.941	3738.69105
533.148	3689.9323
533.354	3784.41503
533.561	3713.42709
533.767	3677.71528
533.974	3612.01821
534.18	3645.56745
534.387	3717.56954
534.593	3648.47372
534.799	3600.09506
535.006	3602.17515
535.212	3588.05833
535.418	3604.51356
535.625	3670.15565
535.831	3599.28143
536.037	3517.56721
536.244	3603.74369
536.45	3560.5333
536.656	3577.09232
536.862	3566.65597
537.068	3606.61326
537.275	3580.17478
537.481	3596.9854
537.687	3505.89832
537.893	3770.39061
538.099	3456.59314
538.305	3517.9411
538.512	3460.20172
538.718	3561.9446
538.924	3463.26913
539.13	3490.13995
539.336	3436.67261
539.542	3556.86885
539.748	3537.87682
539.954	3494.60705
540.16	3471.07463
540.366	3508.90936
540.572	3384.30367
540.778	3478.32283
540.984	3379.95002
541.19	3503.54155
541.396	3458.46174
541.602	3501.01273
541.807	3402.4202
542.013	3436.93839
542.219	3257.6302
542.425	3378.47867
542.631	3253.63937
542.837	3349.07232
543.042	3252.42228
543.248	3240.17172
543.454	3265.48375
543.66	3244.07816
543.865	3116.30911
544.071	3353.14879
544.277	3159.00835
544.483	3265.87278
544.688	3146.76978
544.894	3326.15966
545.1	3234.54147
545.305	3213.05517
545.511	3278.4304
545.716	3162.83345
545.922	3053.45606
546.128	3050.88669
546.333	3167.71978
546.539	3175.3264
546.744	3084.25817
546.95	3050.39193
547.155	3066.78059
547.361	3100.24457
547.566	2943.67393
547.772	3050.88669
547.977	2989.7083
548.182	2996.89846
548.388	2937.40495
548.593	3076.59839
548.799	2921.26346
549.004	2981.56913
549.209	3023.52001
549.415	3017.64334
549.62	2893.03503
549.825	2920.79842
550.031	2829.27369
550.236	2951.19973
550.441	2799.54209
550.646	2907.5208
550.852	2853.12308
551.057	2881.21837
551.262	2846.52924
551.467	2790.76785
551.672	2836.69516
551.878	2817.45139
552.083	2788.01015
552.288	2743.31697
552.493	2759.30368
552.698	2747.64719
552.903	2654.42087
553.108	2802.2017
553.313	2684.17018
553.518	2834.36846
553.723	2707.94641
553.928	2641.7175
554.133	2588.38746
554.338	2737.92992
554.543	2627.15394
554.748	2646.86501
554.953	2615.66342
555.158	2727.08183
555.363	2625.66741
555.568	2672.0343
555.773	2643.07795
555.978	2604.59346
556.182	2535.82196
556.387	2642.64636
556.592	2435.56633
556.797	2579.23466
557.002	2519.44124
557.206	2515.8084
557.411	2453.6247
557.616	2416.86206
557.821	2487.63111
558.025	2470.11722
558.23	2362.73872
558.435	2523.62464
558.64	2428.21129
558.844	2412.7674
559.049	2440.80875
559.253	2537.40064
559.458	2320.78357
559.663	2387.9858
559.867	2320.07656
560.072	2367.89754
560.276	2321.91175
560.481	2286.48217
560.685	2183.4923
560.89	2278.03008
561.094	2240.54794
561.299	2204.21182
561.503	2100.54133
561.708	2256.30092
561.912	2175.11163
562.117	2244.51307
562.321	2155.64041
562.525	2189.48926
562.73	2154.91382
562.934	2196.35505
563.139	2181.13122
563.343	2159.02495
563.547	2051.41254
563.752	2066.35183
563.956	2085.01961
564.16	2117.18552
564.364	2053.82899
564.569	2000.33193
564.773	1968.49094
564.977	2081.47742
565.181	1986.53862
565.385	2099.71513
565.59	1952.14597
565.794	1996.69737
565.998	1914.31604
566.202	1968.15147
566.406	1866.4449
566.61	1956.10605
566.814	1963.14167
567.018	1877.5532
567.222	1884.49747
567.426	1911.30929
567.63	1844.3948
567.834	1949.48311
568.038	1884.74921
568.242	1932.90012
568.446	1813.5513
568.65	1804.81399
568.854	1722.26369
569.058	1797.83764
569.262	1776.3552
569.466	1830.94031
569.67	1689.34147
569.874	1773.52905
570.078	1722.61937
570.281	1777.31254
570.485	1712.10619
570.689	1764.78849
570.893	1738.04289
571.097	1756.8937
571.3	1695.05843
571.504	1683.29984
571.708	1696.40748
571.912	1752.9481
572.115	1664.12362
572.319	1651.65632
572.523	1590.21221
572.726	1658.2618
572.93	1685.28385
573.133	1606.83336
573.337	1561.17833
573.541	1609.77172
573.744	1554.35052
573.948	1594.25771
574.151	1501.44453
574.355	1637.72858
574.558	1530.48214
574.762	1576.09629
574.965	1459.99148
575.169	1469.9759
575.372	1422.63765
575.576	1512.34748
575.779	1468.24118
575.983	1453.17302
576.186	1414.5569
576.389	1510.13961
576.593	1449.43094
576.796	1493.60571
577	1385.27774
