Data from 4_51 _Subt2__2__16-53-38-520.txt Node

Date: Tue Oct 07 16:53:38 EDT 2025
User: brett
Spectrometer: USB4F03499
Trigger mode: 4
Integration Time (sec): 2.950000E-3
Scans to average: 1
Electric dark correction enabled: true
Nonlinearity correction enabled: true
Boxcar width: 5
XAxis mode: Wavelengths
Number of Pixels in Spectrum: 3648
>>>>>Begin Spectral Data<<<<<
345.386	-39.36139
345.605	-22.37144
345.824	-27.04601
346.044	-43.9807
346.263	-54.34384
346.482	-31.50852
346.701	-108.73046
346.92	20.30791
347.139	-49.93597
347.358	-31.71196
347.577	34.77002
347.796	83.97297
348.015	-12.82428
348.234	-12.37879
348.453	-31.70823
348.672	-28.3761
348.891	30.30208
349.11	57.2373
349.329	-11.27547
349.548	27.63702
349.767	-10.6087
349.986	-14.62302
350.205	-39.04773
350.424	-10.83271
350.643	-23.03668
350.862	-16.62063
351.08	-39.27231
351.299	-40.60906
351.518	-30.83761
351.737	-84.29987
351.956	-66.57836
352.174	-43.05453
352.393	-72.34243
352.612	-80.54638
352.831	-89.21771
353.049	-120.23645
353.268	-73.4765
353.487	-85.8984
353.705	-32.18226
353.924	-141.71852
354.143	-50.83631
354.361	-76.78369
354.58	16.74269
354.798	-4.83339
355.017	-51.05091
355.236	16.07897
355.454	-57.26306
355.673	60.61019
355.891	-16.59353
356.11	11.41834
356.328	-67.21091
356.547	-45.90944
356.765	-33.02941
356.984	-24.14696
357.202	0.07712
357.42	21.64278
357.639	56.81243
357.857	0.96088
358.076	-91.1524
358.294	-56.98726
358.512	-85.57865
358.731	45.89212
358.949	-58.97254
359.167	-9.92168
359.386	44.091
359.604	-35.011
359.822	-33.68608
360.04	29.19295
360.259	26.52427
360.477	59.68073
360.695	1.85141
360.913	50.32991
361.131	-75.58837
361.35	-52.97973
361.568	22.97039
361.786	-17.69417
362.004	-38.11473
362.222	12.29607
362.44	75.93641
362.658	6.52578
362.876	-3.02483
363.094	-5.92443
363.312	-15.92115
363.53	-31.90573
363.749	-34.56619
363.967	14.51332
364.184	-19.91859
364.402	59.24546
364.62	-44.56119
364.838	-18.59364
365.056	-5.48884
365.274	22.06971
365.492	11.40546
365.71	55.23458
365.928	9.85551
366.146	-1.03439
366.364	-23.69828
366.581	-18.37138
366.799	-28.36248
367.017	-20.81394
367.235	-34.35942
367.453	16.08463
367.67	-16.38493
367.888	26.71938
368.106	-74.70226
368.323	-20.16405
368.541	-58.32001
368.759	98.61037
368.977	29.59997
369.194	-48.53919
369.412	46.94337
369.629	35.60003
369.847	-16.37293
370.065	9.61889
370.282	-70.25319
370.5	69.44972
370.717	29.83705
370.935	39.8435
371.152	-64.05793
371.37	-8.60265
371.588	-38.56998
371.805	118.28015
372.022	-42.17832
372.24	-5.97238
372.457	8.47874
372.675	-53.51841
372.892	-63.50809
373.11	12.73511
373.327	-42.6323
373.544	-41.74216
373.762	-21.96702
373.979	10.06163
374.196	-67.03025
374.414	-0.82016
374.631	-13.48946
374.848	-19.0283
375.066	-28.79666
375.283	-31.69493
375.5	-32.58447
375.717	-14.81948
375.935	-80.04412
376.152	-10.81395
376.369	10.07291
376.586	-33.028
376.803	-39.69241
377.02	-46.35212
377.238	-46.35122
377.455	53.45225
377.672	19.18274
377.889	40.97318
378.106	-111.67757
378.323	-29.24332
378.54	-31.03567
378.757	-46.57331
378.974	-25.92169
379.191	-64.94239
379.408	-31.90692
379.625	-68.50954
379.842	-18.14771
380.059	8.96198
380.276	-74.96927
380.493	-61.44316
380.71	-83.38561
380.927	-25.46276
381.143	-73.16684
381.36	-0.1372
381.577	-49.22722
381.794	26.10935
382.011	-44.12771
382.228	-12.81018
382.444	-67.00003
382.661	-5.47527
382.878	-24.58893
383.095	6.74609
383.311	-50.35478
383.528	-25.92915
383.745	-39.91641
383.962	83.0795
384.178	19.62685
384.395	-111.97079
384.612	-9.71719
384.828	-46.77966
385.045	-7.93864
385.261	39.63166
385.478	12.06468
385.695	0.73085
385.911	-61.6417
386.128	-36.5659
386.344	-24.3594
386.561	89.52604
386.777	-39.42503
386.994	56.11838
387.21	-8.8072
387.427	-30.56313
387.643	-51.19843
387.86	44.33669
388.076	93.0975
388.292	68.81831
388.509	-44.98822
388.725	-10.14345
388.942	-53.42733
389.158	-27.46457
389.374	-77.78972
389.591	13.40517
389.807	29.6266
390.023	4.51451
390.239	-15.91213
390.456	36.06168
390.672	-46.74046
390.888	57.42295
391.104	17.84434
391.321	86.1249
391.537	41.84029
391.753	17.83935
391.969	3.6197
392.185	78.97786
392.401	-6.37279
392.618	81.64101
392.834	24.27546
393.05	61.63328
393.266	50.50398
393.482	23.82767
393.698	-50.06011
393.914	19.82969
394.13	-66.50998
394.346	-61.17276
394.562	-15.48017
394.778	66.30293
394.994	0.7294
395.21	-61.16225
395.426	24.27289
395.642	18.49366
395.858	43.82843
396.073	-6.60118
396.289	-62.69193
396.505	2.74341
396.721	28.0582
396.937	19.61538
397.153	6.73667
397.369	14.51541
397.584	-23.01181
397.8	-6.80627
398.016	-61.16844
398.232	-15.68881
398.447	-28.34102
398.663	62.56687
398.879	17.85543
399.094	-23.90768
399.31	4.0764
399.526	-41.43604
399.741	-25.68245
399.957	17.17759
400.173	-33.00544
400.388	-2.60437
400.604	-9.26773
400.82	72.09002
401.035	68.28994
401.251	70.50054
401.466	80.06638
401.682	24.03659
401.897	59.58242
402.113	62.03509
402.328	46.24976
402.544	61.37414
402.759	64.7331
402.974	38.04539
403.19	14.94245
403.405	-65.55551
403.621	77.86689
403.836	42.27745
404.051	-5.91795
404.267	12.28737
404.482	54.29417
404.697	4.73803
404.913	7.40321
405.128	-24.54851
405.343	90.10699
405.559	27.1673
405.774	-28.31407
405.989	42.71839
406.204	-46.26936
406.42	2.96148
406.635	32.27572
406.85	90.07901
407.065	-19.87944
407.28	32.26693
407.495	14.50628
407.71	3.183
407.926	46.45303
408.141	31.13875
408.356	-21.19737
408.571	21.59377
408.786	79.95587
409.001	77.29261
409.216	-32.27747
409.431	134.89577
409.646	7.15724
409.861	16.91175
410.076	109.98223
410.291	70.63225
410.506	98.82655
410.721	81.26989
410.936	58.80302
411.15	56.60662
411.365	100.3503
411.58	148.15729
411.795	79.90851
412.01	135.88545
412.225	68.34885
412.439	49.71333
412.654	76.11738
412.869	136.31542
413.084	110.29012
413.299	110.09482
413.513	128.51626
413.728	126.03341
413.943	181.83216
414.157	176.40285
414.372	111.96936
414.587	127.70326
414.801	182.52223
415.016	194.71315
415.231	120.97177
415.445	169.08858
415.66	162.17685
415.874	140.85082
416.089	139.92697
416.304	177.82946
416.518	145.88349
416.733	176.85893
416.947	217.69532
417.162	221.05764
417.376	179.9193
417.59	296.58597
417.805	240.97127
418.019	182.32519
418.234	214.93432
418.448	218.97219
418.663	271.65618
418.877	193.85357
419.091	262.97386
419.306	210.27098
419.52	189.79394
419.734	293.80189
419.949	221.07235
420.163	220.54889
420.377	231.14221
420.591	296.32272
420.806	336.51819
421.02	336.4906
421.234	248.86129
421.448	323.05255
421.663	303.38438
421.877	174.80416
422.091	291.55218
422.305	338.83059
422.519	312.5924
422.733	330.36592
422.947	241.58156
423.161	267.03129
423.376	264.96338
423.59	289.07229
423.804	319.88937
424.018	374.00993
424.232	325.21888
424.446	331.67055
424.66	374.96844
424.874	328.89536
425.088	331.25909
425.302	445.75441
425.515	375.92979
425.729	328.36358
425.943	284.61044
426.157	363.18389
426.371	427.87591
426.585	396.63284
426.799	367.31582
427.013	442.06186
427.226	366.54647
427.44	428.60956
427.654	418.01971
427.868	407.81137
428.081	478.68393
428.295	427.54031
428.509	426.26087
428.723	449.83345
428.936	376.44214
429.15	426.73796
429.364	434.57204
429.577	395.38405
429.791	331.58883
430.005	447.58181
430.218	373.54271
430.432	356.50295
430.645	415.10268
430.859	420.92823
431.073	431.3954
431.286	383.74584
431.5	438.99548
431.713	415.36028
431.927	435.54299
432.14	445.13613
432.354	410.53889
432.567	479.95005
432.781	449.7135
432.994	481.89109
433.207	346.55474
433.421	484.48948
433.634	469.9259
433.848	491.06171
434.061	451.173
434.274	455.46168
434.488	442.38022
434.701	427.08296
434.914	509.23276
435.127	535.45193
435.341	467.19025
435.554	450.6642
435.767	527.04313
435.98	562.8325
436.194	482.91155
436.407	538.60072
436.62	590.0268
436.833	640.03768
437.046	716.07476
437.259	565.85096
437.473	620.49795
437.686	609.42823
437.899	631.4149
438.112	640.3753
438.325	635.45854
438.538	682.39209
438.751	689.22618
438.964	661.61307
439.177	702.87809
439.39	777.31038
439.603	810.07065
439.816	807.69678
440.029	821.74248
440.242	888.92265
440.455	993.78142
440.668	945.6434
440.881	884.20505
441.094	948.10301
441.306	981.77524
441.519	1005.84955
441.732	1050.45227
441.945	1139.93171
442.158	1146.32864
442.37	1085.82588
442.583	1135.03307
442.796	1092.39077
443.009	1254.75929
443.222	1215.63725
443.434	1302.96883
443.647	1336.36161
443.86	1308.96364
444.072	1364.32926
444.285	1302.99146
444.498	1400.02362
444.71	1351.29409
444.923	1325.70752
445.136	1365.16417
445.348	1326.41271
445.561	1427.12983
445.773	1422.45443
445.986	1345.95724
446.198	1429.00568
446.411	1477.4626
446.623	1481.84195
446.836	1555.83688
447.048	1564.87127
447.261	1725.75016
447.473	1741.97695
447.686	1652.60974
447.898	1694.07349
448.11	1764.89454
448.323	1723.44555
448.535	1670.96594
448.748	1729.83706
448.96	1741.77113
449.172	1835.72423
449.385	1750.64744
449.597	1825.46621
449.809	1749.48296
450.021	1822.06162
450.234	1814.15892
450.446	1818.53479
450.658	1838.64939
450.87	1836.15283
451.083	1885.71855
451.295	1948.91176
451.507	1925.69485
451.719	1903.02469
451.931	2000.25312
452.143	2026.37482
452.356	2028.49892
452.568	1961.05322
452.78	2012.71195
452.992	2019.62426
453.204	1944.7727
453.416	2075.44301
453.628	2137.05478
453.84	2187.29345
454.052	2148.18026
454.264	2162.6494
454.476	2108.95241
454.688	2182.97373
454.9	2222.19421
455.112	2197.90439
455.324	2337.5284
455.536	2307.50086
455.747	2265.83272
455.959	2260.93358
456.171	2247.60022
456.383	2246.21742
456.595	2307.39909
456.807	2323.16057
457.018	2391.21619
457.23	2243.60947
457.442	2239.733
457.654	2233.55132
457.865	2321.54914
458.077	2401.06554
458.289	2390.57017
458.501	2406.15061
458.712	2441.58043
458.924	2430.04469
459.136	2422.47536
459.347	2450.28635
459.559	2520.14093
459.77	2511.4236
459.982	2592.49107
460.194	2437.22845
460.405	2584.64204
460.617	2622.41725
460.828	2596.37643
461.04	2687.12917
461.251	2717.60468
461.463	2531.84647
461.674	2753.00645
461.886	2753.96452
462.097	2730.34915
462.309	2683.06261
462.52	2726.50829
462.731	2734.39204
462.943	2732.62817
463.154	2824.45389
463.366	2822.04044
463.577	2839.30473
463.788	3025.70548
464	2914.27915
464.211	3005.44413
464.422	3032.64436
464.634	3162.34102
464.845	3109.20366
465.056	3199.48806
465.267	3185.29169
465.478	3244.29851
465.69	3290.48655
465.901	3280.14362
466.112	3401.79175
466.323	3371.8979
466.534	3332.82577
466.745	3422.38007
466.957	3408.7721
467.168	3472.00522
467.379	3450.83949
467.59	3529.43842
467.801	3578.88895
468.012	3568.17316
468.223	3568.39729
468.434	3615.99626
468.645	3612.11009
468.856	3621.14037
469.067	3659.0113
469.278	3687.24086
469.489	3692.94327
469.7	3900.79098
469.911	3859.04212
470.122	3862.89102
470.333	3999.43343
470.543	3938.70742
470.754	3966.52821
470.965	4064.12348
471.176	4129.04676
471.387	4084.24929
471.598	4172.48164
471.808	4152.9421
472.019	4159.65968
472.23	4269.5864
472.441	4311.19259
472.651	4231.64835
472.862	4316.20311
473.073	4336.58779
473.283	4291.8
473.494	4440.52343
473.705	4441.95033
473.915	4640.45656
474.126	4567.69824
474.337	4635.87291
474.547	4654.4415
474.758	4680.11687
474.968	4889.33609
475.179	4892.61828
475.389	4894.7519
475.6	5029.62828
475.81	4969.75232
476.021	5083.56414
476.231	5076.27823
476.442	5134.74391
476.652	5274.41671
476.863	5305.78299
477.073	5336.24368
477.284	5356.33064
477.494	5494.75102
477.704	5435.62889
477.915	5580.25453
478.125	5712.0601
478.335	5716.82776
478.546	5788.2335
478.756	5922.46975
478.966	5953.31033
479.177	5989.86415
479.387	6122.51914
479.597	6261.10576
479.807	6210.42622
480.018	6257.91262
480.228	6294.36738
480.438	6359.61262
480.648	6500.38047
480.858	6626.24122
481.068	6687.87593
481.279	6852.31953
481.489	6962.93089
481.699	6906.48852
481.909	7014.97822
482.119	7095.869
482.329	7290.79795
482.539	7381.12733
482.749	7434.85577
482.959	7528.40001
483.169	7544.87553
483.379	7608.07684
483.589	7704.35977
483.799	7673.06525
484.009	7917.11588
484.219	7927.80224
484.429	8070.1837
484.639	8021.13444
484.849	8067.31308
485.059	8171.07418
485.268	8262.68731
485.478	8306.79237
485.688	8329.53843
485.898	8505.62352
486.108	8550.50044
486.317	8635.78626
486.527	8661.08817
486.737	8737.67552
486.947	8759.61744
487.156	8865.96637
487.366	8842.17488
487.576	8927.59844
487.785	8963.68973
487.995	8921.64741
488.205	8980.80515
488.414	8966.2346
488.624	9103.72515
488.834	9033.90326
489.043	9201.63572
489.253	9132.93218
489.462	9215.829
489.672	9193.55003
489.882	9357.88775
490.091	9416.2587
490.301	9361.79468
490.51	9521.59194
490.72	9565.16629
490.929	9537.11911
491.138	9613.33783
491.348	9621.55028
491.557	9701.0929
491.767	9730.89019
491.976	9797.32234
492.185	9734.55979
492.395	9930.96969
492.604	9815.05009
492.813	9878.84323
493.023	10054.06132
493.232	10063.35165
493.441	9994.87174
493.651	10138.05359
493.86	10171.95844
494.069	10268.42253
494.278	10202.51021
494.488	10327.6571
494.697	10328.12934
494.906	10423.54382
495.115	10509.59393
495.324	10466.43135
495.533	10637.11304
495.743	10679.70265
495.952	10726.76986
496.161	10897.79243
496.37	10867.89221
496.579	10980.50094
496.788	11130.32542
496.997	11107.07714
497.206	11228.2858
497.415	11182.77314
497.624	11333.96337
497.833	11349.77133
498.042	11401.18379
498.251	11406.73166
498.46	11493.65017
498.669	11609.84659
498.878	11541.91456
499.087	11576.78856
499.296	11588.23632
499.504	11769.19543
499.713	11652.68498
499.922	11740.98466
500.131	11808.6246
500.34	11846.88627
500.549	11871.50346
500.757	11867.21912
500.966	11908.62999
501.175	11975.25427
501.384	11991.18067
501.592	12026.06557
501.801	12030.36262
502.01	12150.76185
502.218	12163.52276
502.427	12180.86974
502.636	12069.53737
502.844	12098.4503
503.053	12046.68369
503.262	12208.34263
503.47	12169.34118
503.679	12071.72819
503.887	12148.41331
504.096	12129.32956
504.304	12161.21694
504.513	12266.49342
504.721	12153.18588
504.93	12091.41747
505.138	12183.57582
505.347	12192.36038
505.555	12128.64685
505.764	12176.34406
505.972	12137.84544
506.18	12075.67902
506.389	12178.48449
506.597	12184.74044
506.806	12184.34709
507.014	12207.71874
507.222	12319.56167
507.431	12275.61766
507.639	12258.5216
507.847	12305.43638
508.055	12380.2101
508.264	12394.36263
508.472	12298.86687
508.68	12390.35788
508.888	12320.5998
509.096	12426.92209
509.305	12378.32609
509.513	12400.32036
509.721	12387.61512
509.929	12489.30028
510.137	12503.68187
510.345	12529.06291
510.553	12473.62517
510.762	12535.01125
510.97	12502.80369
511.178	12635.40404
511.386	12576.34055
511.594	12689.25918
511.802	12680.22284
512.01	12759.17091
512.218	12748.72001
512.426	12830.81522
512.634	12833.94502
512.842	12831.96275
513.049	12870.61846
513.257	12915.70893
513.465	12967.89795
513.673	13002.72338
513.881	13012.603
514.089	13059.96242
514.297	13022.66041
514.504	13128.32352
514.712	13148.89141
514.92	13200.09531
515.128	13313.54671
515.336	13229.92067
515.543	13296.40232
515.751	13281.27701
515.959	13218.50904
516.166	13285.88606
516.374	13295.90566
516.582	13338.65243
516.789	13388.64685
516.997	13436.36606
517.205	13291.66177
517.412	13363.10555
517.62	13296.05531
517.827	13282.04623
518.035	13239.93866
518.243	13253.67553
518.45	13219.76049
518.658	13295.12734
518.865	13209.35024
519.073	13239.98093
519.28	13171.68812
519.488	13162.98424
519.695	13169.34514
519.902	13071.86423
520.11	13067.67531
520.317	13016.69915
520.525	13047.02123
520.732	13064.90303
520.939	12962.34694
521.147	13037.62534
521.354	12958.22148
521.561	13031.06207
521.769	12930.355
521.976	12922.63013
522.183	12867.70752
522.391	12986.48842
522.598	13002.42992
522.805	13007.43158
523.012	12946.7732
523.219	13096.80409
523.427	13113.73992
523.634	13266.02341
523.841	13212.00102
524.048	13246.47194
524.255	13265.53093
524.462	13309.44812
524.669	13324.20776
524.877	13358.73752
525.084	13421.11452
525.291	13330.15926
525.498	13411.43211
525.705	13397.06998
525.912	13530.21825
526.119	13494.66544
526.326	13448.75626
526.533	13538.92317
526.74	13618.95787
526.947	13663.28237
527.153	13665.83091
527.36	13718.19199
527.567	13702.3178
527.774	13752.57386
527.981	13830.99847
528.188	13792.35842
528.395	13846.68602
528.602	13840.18658
528.808	13902.55896
529.015	13884.82844
529.222	13860.56958
529.429	13938.80327
529.635	13916.57269
529.842	13977.14763
530.049	13989.77425
530.256	14012.69696
530.462	13981.12493
530.669	14052.55146
530.876	14102.22918
531.082	14137.46662
531.289	14173.46133
531.495	14228.30226
531.702	14266.75485
531.909	14209.08972
532.115	14326.18313
532.322	14340.30715
532.528	14390.2516
532.735	14393.85635
532.941	14369.02682
533.148	14419.70216
533.354	14323.39908
533.561	14399.88859
533.767	14375.74472
533.974	14461.9092
534.18	14465.53568
534.387	14388.97432
534.593	14491.9626
534.799	14456.13048
535.006	14435.16195
535.212	14396.07774
535.418	14320.42367
535.625	14392.32794
535.831	14400.60384
536.037	14398.31416
536.244	14515.97504
536.45	14498.95642
536.656	14456.41607
536.862	14593.28703
537.068	14583.97452
537.275	14588.67358
537.481	14551.58269
537.687	14666.48565
537.893	14645.49001
538.099	14708.16741
538.305	14692.46402
538.512	14677.23337
538.718	14782.12912
538.924	14729.47938
539.13	14676.9306
539.336	14708.58121
539.542	14705.44561
539.748	14756.50217
539.954	14708.37257
540.16	14705.09513
540.366	14723.76737
540.572	14783.51627
540.778	14684.91005
540.984	14592.20203
541.19	14634.05036
541.396	14633.65846
541.602	14654.33105
541.807	14680.64522
542.013	14712.5867
542.219	14632.78212
542.425	14652.14407
542.631	14684.7627
542.837	14614.53333
543.042	14593.66387
543.248	14605.61122
543.454	14520.44454
543.66	14600.62314
543.865	14559.14823
544.071	14558.32419
544.277	14538.64785
544.483	14482.2413
544.688	14414.47005
544.894	14504.31
545.1	14452.7438
545.305	14509.80428
545.511	14534.61008
545.716	14434.98656
545.922	14461.73787
546.128	14510.37976
546.333	14548.48191
546.539	14435.76321
546.744	14443.19404
546.95	14469.75624
547.155	14431.19025
547.361	14379.39458
547.566	14428.04913
547.772	14285.45252
547.977	14385.05277
548.182	14367.5021
548.388	14364.79828
548.593	14288.75302
548.799	14359.98174
549.004	14360.34933
549.209	14382.6981
549.415	14355.25624
549.62	14339.61755
549.825	14447.33171
550.031	14418.98999
550.236	14444.60201
550.441	14469.03614
550.646	14435.17239
550.852	14501.27531
551.057	14444.94811
551.262	14577.19477
551.467	14483.16189
551.672	14517.57901
551.878	14459.05357
552.083	14462.98606
552.288	14512.47889
552.493	14428.40992
552.698	14459.18016
552.903	14538.84833
553.108	14527.23944
553.313	14539.223
553.518	14576.15252
553.723	14591.8581
553.928	14571.4404
554.133	14648.25213
554.338	14599.89842
554.543	14601.21714
554.748	14665.97868
554.953	14678.73321
555.158	14637.64361
555.363	14760.57201
555.568	14691.11489
555.773	14711.7178
555.978	14673.10167
556.182	14699.95916
556.387	14722.60419
556.592	14682.86874
556.797	14734.93752
557.002	14732.17943
557.206	14745.28161
557.411	14645.56815
557.616	14686.21478
557.821	14691.82103
558.025	14641.01973
558.23	14719.36974
558.435	14663.26166
558.64	14756.45733
558.844	14662.17776
559.049	14624.10455
559.253	14662.87481
559.458	14676.8795
559.663	14623.64136
559.867	14678.79347
560.072	14526.80997
560.276	14581.97939
560.481	14552.24379
560.685	14512.58857
560.89	14486.27159
561.094	14514.1462
561.299	14429.635
561.503	14432.50459
561.708	14495.51233
561.912	14396.15029
562.117	14319.54086
562.321	14402.97535
562.525	14389.3471
562.73	14408.6679
562.934	14357.90085
563.139	14350.43034
563.343	14281.21058
563.547	14361.379
563.752	14341.35792
563.956	14363.08167
564.16	14317.94613
564.364	14259.35914
564.569	14263.70195
564.773	14213.53336
564.977	14227.70821
565.181	14194.99258
565.385	14170.99392
565.59	14169.79335
565.794	14190.06053
565.998	14126.15949
566.202	14171.08585
566.406	14158.49845
566.61	14146.93311
566.814	14141.38578
567.018	14167.84379
567.222	14109.48802
567.426	14008.04226
567.63	14024.24918
567.834	14034.89823
568.038	13952.43341
568.242	13967.05464
568.446	13954.91436
568.65	13793.18546
568.854	13877.2337
569.058	13907.43569
