Data from Subt2__0__22-16-39-696.txt Node

Date: Tue Oct 07 22:16:39 EDT 2025
User: brett
Spectrometer: USB4F03499
Trigger mode: 4
Integration Time (sec): 1.000000E-1
Scans to average: 1
Electric dark correction enabled: true
Nonlinearity correction enabled: true
Boxcar width: 0
XAxis mode: Wavelengths
Number of Pixels in Spectrum: 3648
>>>>>Begin Spectral Data<<<<<
345.386	14.2465
345.605	14.2465
345.824	14.2465
346.044	-0.47178
346.263	-2.73809
346.482	-1.5976
346.701	17.58072
346.92	-18.52087
347.139	-17.39034
347.358	15.31905
347.577	17.55099
347.796	-35.50625
348.015	-11.76002
348.234	5.1691
348.453	-34.35396
348.672	35.6398
348.891	27.77472
349.11	22.11657
349.329	-4.97931
349.548	-21.92621
349.767	-16.25197
349.986	52.52477
350.205	53.70523
350.424	10.82427
350.643	16.46243
350.862	53.71148
351.08	47.99611
351.299	72.83468
351.518	32.25886
351.737	-1.59915
351.956	66.07063
352.174	69.49838
352.393	32.26136
352.612	7.42557
352.831	60.41411
353.049	11.95352
353.268	2.91372
353.487	17.57122
353.705	24.39908
353.924	63.89416
354.143	20.96727
354.361	-10.62098
354.58	28.85801
354.798	59.36119
355.017	35.63153
355.236	80.7743
355.454	-1.5997
355.673	30.00983
355.891	2.91192
356.11	-30.94217
356.328	90.94224
356.547	45.78423
356.765	17.56784
356.984	20.96484
357.202	40.14579
357.42	16.45477
357.639	15.31905
357.857	33.33406
358.076	18.67761
358.294	71.71106
358.512	-19.64259
358.731	47.98873
358.949	-1.59772
359.167	23.20146
359.386	42.30786
359.604	1.78759
359.822	46.90061
360.04	-20.758
360.259	22.09342
360.477	6.29194
360.695	35.63153
360.913	22.07893
361.131	5.16751
361.35	22.06959
361.568	1.78566
361.786	52.52477
362.004	76.09954
362.222	-19.63427
362.44	23.20235
362.658	26.62469
362.876	60.36075
363.094	0.65796
363.312	31.09722
363.53	71.761
363.749	62.67391
363.967	49.10531
364.184	10.80417
364.402	50.26581
364.62	38.99423
364.838	70.63923
365.056	46.93692
365.274	77.28029
365.492	-0.47015
365.71	23.22384
365.928	73.91263
366.146	58.16811
366.364	67.16349
366.581	-21.89229
366.799	56.97147
367.017	81.83158
367.235	59.34047
367.453	34.48405
367.67	78.32764
367.888	71.84479
368.106	9.67547
368.323	44.4531
368.541	29.9808
368.759	15.32793
368.977	45.76303
369.194	4.04091
369.412	-6.10847
369.629	28.85022
369.847	2.90758
370.065	-1.59853
370.282	77.29216
370.5	49.13173
370.717	54.72099
370.935	38.99573
371.152	46.90785
371.37	78.4056
371.588	11.92949
371.805	71.65035
372.022	64.86173
372.24	76.14617
372.457	-12.86882
372.675	60.41178
372.892	77.28919
373.11	31.06858
373.327	65.08297
373.544	54.80101
373.762	58.12561
373.979	72.8403
374.196	96.56819
374.414	67.13512
374.631	86.32797
374.848	34.47078
375.066	63.83227
375.283	23.21218
375.5	62.80041
375.717	72.8403
375.935	39.00475
376.152	61.52856
376.369	58.09221
376.586	102.22781
376.803	43.44933
377.02	81.81898
377.238	93.19213
377.455	49.15635
377.672	29.91993
377.889	31.09243
378.106	18.71433
378.323	66.10639
378.54	40.12873
378.757	60.27333
378.974	46.90061
379.191	53.6327
379.408	-9.49878
379.625	106.5857
379.842	39.00626
380.059	62.74911
380.276	90.89652
380.493	55.88482
380.71	96.49736
380.927	76.08211
381.143	60.32383
381.36	25.47155
381.577	33.32256
381.794	57.00863
382.011	94.18794
382.228	26.56723
382.444	71.59822
382.661	68.3368
382.878	48.0257
383.095	130.32849
383.311	141.49007
383.528	70.53567
383.745	7.42902
383.962	79.59514
384.178	33.33534
384.395	55.97557
384.612	50.27162
384.828	118.81122
385.045	89.7218
385.261	50.18687
385.478	97.7439
385.695	-20.76039
385.911	53.64509
386.128	41.24296
386.344	16.44905
386.561	61.60704
386.777	73.91263
386.994	79.65361
387.21	64.79738
387.427	37.86887
387.643	32.21903
387.86	61.5191
388.076	73.92968
388.292	47.99242
388.509	67.13254
388.725	93.1058
388.942	22.0977
389.158	64.9541
389.374	84.1221
389.591	106.53259
389.807	77.30702
390.023	18.65768
390.239	53.57314
390.456	67.27002
390.672	85.13372
390.888	71.68066
391.104	102.03893
391.321	108.83951
391.537	72.94202
391.753	71.68342
391.969	71.58455
392.185	82.96379
392.401	115.60984
392.618	70.54652
392.834	94.04765
393.05	100.96087
393.266	124.48276
393.482	79.53697
393.698	48.02385
393.914	109.8927
394.13	22.06028
394.346	99.67936
394.562	91.95537
394.778	43.48766
394.994	116.62732
395.21	176.40715
395.426	89.7218
395.642	113.42568
395.858	55.89127
396.073	162.68251
396.289	134.59101
396.505	129.13876
396.721	134.78693
396.937	64.85676
397.153	49.12228
397.369	104.35996
397.584	115.69891
397.8	52.44225
398.016	53.54251
398.232	89.51622
398.447	64.78998
398.663	77.29513
398.879	79.58594
399.094	89.74255
399.31	73.89277
399.526	100.89507
399.741	88.48741
399.957	44.61392
400.173	75.09311
400.388	93.03429
400.604	101.01918
400.82	114.45428
401.035	82.98939
401.251	170.56867
401.466	67.25697
401.682	105.42845
401.897	138.03339
402.113	121.1635
402.328	59.2718
402.544	112.21808
402.759	107.69814
402.974	130.07905
403.19	120.97449
403.405	142.57577
403.621	141.39264
403.836	139.14083
404.051	152.75687
404.267	109.97698
404.482	179.41416
404.697	163.78591
404.913	147.17714
405.128	145.95204
405.343	43.4693
405.559	160.4871
405.774	180.88593
405.989	169.58893
406.204	145.71321
406.42	191.90872
406.635	155.94911
406.85	126.52272
407.065	139.00844
407.28	198.95503
407.495	170.64018
407.71	197.5377
407.926	192.01835
408.141	112.0979
408.356	136.71211
408.571	146.85162
408.786	122.13835
409.001	169.34366
409.216	197.6581
409.431	176.19167
409.646	146.92413
409.861	158.13362
410.076	169.38222
410.291	217.73109
410.506	153.82756
410.721	146.00799
410.936	163.85449
411.15	153.72187
411.365	169.27314
411.58	215.52245
411.795	188.63051
412.01	214.23095
412.225	206.57753
412.439	168.24778
412.654	162.61454
412.869	189.42184
413.084	179.79047
413.299	143.54048
413.513	187.50846
413.728	168.29252
413.943	125.44867
414.157	188.35863
414.372	199.66659
414.587	171.42432
414.801	222.23864
415.016	210.73529
415.231	267.58878
415.445	220.11451
415.66	114.35362
415.874	216.74225
416.089	134.50402
416.304	176.31938
416.518	210.97443
416.733	199.69685
416.947	216.61865
417.162	201.68692
417.376	172.81263
417.59	164.85775
417.805	219.88064
418.019	213.378
418.234	186.20928
418.448	251.427
418.663	210.76706
418.877	295.21355
419.091	198.46338
419.306	255.87686
419.52	201.89243
419.734	226.96251
419.949	241.77522
420.163	263.84247
420.377	208.78839
420.591	170.32971
420.806	222.12917
421.02	225.76334
421.234	261.3456
421.448	208.47267
421.663	199.83343
421.877	224.30139
422.091	173.67133
422.305	192.92029
422.519	204.29587
422.733	244.72592
422.947	251.60855
423.161	234.56278
423.376	246.9474
423.59	228.53025
423.804	191.93791
424.018	245.89272
424.232	280.11707
424.446	225.02356
424.66	270.35576
424.874	217.74762
425.088	180.75463
425.302	237.98259
425.515	284.1318
425.729	209.50543
425.943	228.74514
426.157	263.55328
426.371	202.7529
426.585	217.00462
426.799	260.88522
427.013	253.27462
427.226	247.92656
427.44	241.18253
427.654	199.52331
427.868	228.70205
428.081	283.88436
428.295	270.51937
428.509	260.17774
428.723	289.26986
428.936	247.90783
429.15	241.19165
429.364	244.25557
429.577	219.94728
429.791	232.19931
430.005	290.22412
430.218	232.18176
430.432	251.20849
430.645	250.1179
430.859	264.83177
431.073	262.61317
431.286	235.70078
431.5	218.5378
431.713	238.55753
431.927	240.09029
432.14	291.85712
432.354	229.97731
432.567	251.41747
432.781	248.10501
432.994	257.87242
433.207	207.38446
433.421	274.7681
433.634	201.10832
433.848	256.22654
434.061	275.09032
434.274	276.9629
434.488	215.39988
434.701	274.59255
434.914	220.51956
435.127	247.97343
435.341	269.14568
435.554	264.66187
435.767	247.76768
435.98	237.70736
436.194	296.28744
436.407	267.04989
436.62	278.19618
436.833	344.84181
437.046	270.10154
437.259	248.02976
437.473	294.72487
437.686	235.70972
437.899	233.01183
438.112	244.36565
438.325	262.67286
438.538	322.03951
438.751	318.24332
438.964	271.63371
439.177	350.23398
439.39	276.53804
439.603	318.60203
439.816	286.89446
440.029	339.54809
440.242	361.42784
440.455	324.89209
440.668	289.89941
440.881	307.37802
441.094	342.47515
441.306	346.26866
441.519	353.78766
441.732	366.16807
441.945	386.90089
442.158	359.06723
442.37	361.96623
442.583	346.16518
442.796	371.96171
443.009	381.75298
443.222	319.12133
443.434	354.10433
443.647	398.44228
443.86	342.69091
444.072	362.64917
444.285	391.27517
444.498	414.26981
444.71	437.99919
444.923	385.26633
445.136	396.52499
445.348	345.19165
445.561	346.37237
445.773	406.04409
445.986	368.39699
446.198	404.53439
446.411	415.66148
446.623	456.92106
446.836	429.90064
447.048	424.50914
447.261	505.4695
447.473	441.89502
447.686	456.3968
447.898	395.74773
448.11	526.12586
448.323	443.54142
448.535	448.18616
448.748	443.15429
448.96	453.83624
449.172	433.99863
449.385	414.96818
449.597	378.41109
449.809	491.6334
450.021	457.28925
450.234	465.56259
450.446	371.81176
450.658	428.4545
450.87	390.04305
451.083	472.40624
451.295	487.71905
451.507	435.99749
451.719	462.20987
451.931	434.9022
452.143	478.79544
452.356	475.97292
452.568	458.87402
452.78	388.87436
452.992	451.95049
453.204	482.63642
453.416	383.88101
453.628	432.28691
453.84	506.78507
454.052	433.93461
454.264	504.85836
454.476	480.9821
454.688	510.36175
454.9	481.0886
455.112	465.75238
455.324	468.09841
455.536	456.66683
455.747	480.87578
455.959	506.79906
456.171	551.78212
456.383	501.37976
456.595	490.97912
456.807	456.26223
457.018	461.33734
457.23	492.19854
457.442	462.05611
457.654	497.1675
457.865	513.31562
458.077	492.9103
458.289	537.17309
458.501	513.08925
458.712	546.13554
458.924	529.51714
459.136	496.60482
459.347	499.37944
459.559	512.81155
459.77	531.75295
459.982	559.47602
460.194	509.16384
460.405	510.06029
460.617	555.39028
460.828	575.33687
461.04	541.37453
461.251	571.2851
461.463	571.36797
461.674	652.08766
461.886	484.18524
462.097	609.10965
462.309	600.56581
462.52	531.77239
462.731	568.26931
462.943	562.92997
463.154	550.47446
463.366	540.82483
463.577	540.89741
463.788	590.39109
464	668.84121
464.211	569.79739
464.422	594.57671
464.634	608.00202
464.845	577.80597
465.056	625.01337
465.267	628.08045
465.478	573.68878
465.69	579.70428
465.901	621.08842
466.112	616.36686
466.323	643.97123
466.534	660.07238
466.745	624.72248
466.957	688.81857
467.168	614.96964
467.379	602.69121
467.59	641.12087
467.801	632.38725
468.012	688.44785
468.223	685.99669
468.434	672.648
468.645	713.64686
468.856	709.69853
469.067	701.68562
469.278	659.99571
469.489	691.27118
469.7	609.57176
469.911	652.74308
470.122	739.00493
470.333	744.03937
470.543	622.95995
470.754	710.33676
470.965	735.70577
471.176	631.46488
471.387	752.07843
471.598	658.53059
471.808	677.19295
472.019	720.13643
472.23	731.87229
472.441	701.73638
472.651	677.93011
472.862	666.79301
473.073	722.38406
473.283	688.96729
473.494	747.69771
473.705	727.90824
473.915	726.88397
474.126	747.04275
474.337	747.16265
474.547	772.48682
474.758	785.0604
474.968	792.7641
475.179	700.87731
475.389	829.84756
475.6	774.31766
475.81	851.0955
476.021	820.51841
476.231	855.0656
476.442	857.01402
476.652	790.25481
476.863	858.54139
477.073	754.52562
477.284	829.80356
477.494	845.98194
477.704	916.30299
477.915	855.48953
478.125	874.21976
478.335	883.47573
478.546	903.49999
478.756	970.01379
478.966	940.09717
479.177	920.17122
479.387	955.4278
479.597	1003.20998
479.807	955.23485
480.018	983.25836
480.228	993.63568
480.438	930.16736
480.648	1002.53723
480.858	1018.55832
481.068	953.04012
481.279	1034.19497
481.489	1012.06741
481.699	1012.66744
481.909	968.3689
482.119	1167.33979
482.329	1060.86571
482.539	1021.55105
482.749	970.03641
482.959	1125.55142
483.169	1112.74166
483.379	1163.77021
483.589	1156.17398
483.799	1071.05805
484.009	1139.21681
484.219	1063.44281
484.429	1224.71717
484.639	1153.34315
484.849	1134.07562
485.059	1227.22977
485.268	1205.96591
485.478	1191.61735
485.688	1121.782
485.898	1232.32337
486.108	1162.867
486.317	1212.68909
486.527	1238.75877
486.737	1268.33972
486.947	1253.94772
487.156	1198.75367
487.366	1200.32376
487.576	1222.87548
487.785	1197.49104
487.995	1140.1861
488.205	1231.06896
488.414	1280.67846
488.624	1253.88087
488.834	1297.46866
489.043	1247.39415
489.253	1226.38858
489.462	1251.98881
489.672	1237.58809
489.882	1256.11046
490.091	1252.69352
490.301	1314.40394
490.51	1279.54485
490.72	1332.16612
490.929	1332.34344
491.138	1304.62099
491.348	1228.5656
491.557	1235.8721
491.767	1323.68771
491.976	1322.95991
492.185	1364.68587
492.395	1377.51927
492.604	1370.4131
492.813	1370.21772
493.023	1416.3929
493.232	1357.13068
493.441	1471.37952
493.651	1327.47292
493.86	1357.13068
494.069	1317.18684
494.278	1398.21942
494.488	1467.5196
494.697	1460.81108
494.906	1383.45772
495.115	1409.65027
495.324	1432.36522
495.533	1377.70405
495.743	1449.80805
495.952	1425.44755
496.161	1432.87212
496.37	1431.81143
496.579	1422.95243
496.788	1526.56646
496.997	1533.05235
497.206	1421.95862
497.415	1558.00852
497.624	1512.6526
497.833	1437.89334
498.042	1489.68301
498.251	1607.30183
498.46	1514.12033
498.669	1532.20944
498.878	1545.35499
499.087	1499.39961
499.296	1515.9216
499.504	1606.90701
499.713	1511.47284
499.922	1554.36555
500.131	1638.40548
500.34	1563.19553
500.549	1579.69477
500.757	1557.90548
500.966	1625.81538
501.175	1641.43257
501.384	1563.4498
501.592	1522.57432
501.801	1586.15735
502.01	1587.98435
502.218	1568.11102
502.427	1603.31446
502.636	1631.53481
502.844	1566.05973
503.053	1618.72035
503.262	1627.80746
503.47	1618.40247
503.679	1610.58003
503.887	1567.87883
504.096	1691.32812
504.304	1601.23776
504.513	1637.97686
504.721	1652.33268
504.93	1604.28464
505.138	1660.01407
505.347	1634.49403
505.555	1581.4956
505.764	1576.56891
505.972	1672.39271
506.18	1638.19105
506.389	1627.64068
506.597	1665.75812
506.806	1591.36225
507.014	1642.97838
507.222	1621.62986
507.431	1699.92793
507.639	1554.06849
507.847	1582.43132
508.055	1628.90816
508.264	1576.71891
508.472	1651.63311
508.68	1621.01542
508.888	1702.20721
509.096	1628.94664
509.305	1642.92483
509.513	1717.80196
509.721	1582.11889
509.929	1677.57032
510.137	1660.06806
510.345	1657.02414
510.553	1645.07432
510.762	1701.18846
510.97	1729.51974
511.178	1670.66242
511.386	1759.65837
511.594	1725.22933
511.802	1673.54633
512.01	1647.49332
512.218	1726.22483
512.426	1725.15108
512.634	1778.94122
512.842	1686.43151
513.049	1757.62245
513.257	1754.37209
513.465	1745.94207
513.673	1730.57585
513.881	1692.23785
514.089	1752.44174
514.297	1698.89903
514.504	1712.63209
514.712	1727.07383
514.92	1740.97352
515.128	1668.33133
515.336	1695.84305
515.543	1753.72993
515.751	1738.31779
515.959	1735.68856
516.166	1740.01332
516.374	1783.15067
516.582	1721.83458
516.789	1705.34025
516.997	1747.52163
517.205	1742.78126
517.412	1738.37927
517.62	1733.98982
517.827	1786.47183
518.035	1723.89844
518.243	1766.32028
518.45	1750.02001
518.658	1706.87978
518.865	1736.62666
519.073	1774.78338
519.28	1744.65205
519.488	1724.99255
519.695	1719.5884
519.902	1680.64333
520.11	1715.57427
520.317	1694.67231
520.525	1729.07422
520.732	1732.84015
520.939	1775.78217
521.147	1698.98458
521.354	1704.87502
521.561	1673.49211
521.769	1675.38134
521.976	1677.27479
522.183	1731.14304
522.391	1621.48927
522.598	1702.86248
522.805	1696.45418
523.012	1734.81381
523.219	1689.98038
523.427	1629.8438
523.634	1671.45258
523.841	1667.23518
524.048	1789.50109
524.255	1825.37278
524.462	1715.10163
524.669	1774.93087
524.877	1773.13975
525.084	1743.45676
525.291	1688.03311
525.498	1733.10147
525.705	1717.09096
525.912	1764.05002
526.119	1757.84876
526.326	1722.62326
526.533	1774.84065
526.74	1743.068
526.947	1677.57032
527.153	1689.73091
527.36	1768.90092
527.567	1755.25477
527.774	1747.52414
527.981	1784.24023
528.188	1828.70265
528.395	1733.63261
528.602	1745.67908
528.808	1789.52589
529.015	1835.93336
529.222	1840.42086
529.429	1755.64825
529.635	1847.03703
529.842	1893.78971
530.049	1796.61457
530.256	1794.80057
530.462	1859.74874
530.669	1877.04132
530.876	1855.66001
531.082	1773.9166
531.289	1704.43398
531.495	1771.0436
531.702	1749.27481
531.909	1845.13307
532.115	1799.6141
532.322	1851.25541
532.528	1884.57562
532.735	1823.40687
532.941	1829.34181
533.148	1814.19661
533.354	1847.14485
533.561	1863.78505
533.767	1758.75095
533.974	1717.96257
534.18	1808.21113
534.387	1753.22433
534.593	1804.70688
534.799	1823.71662
535.006	1903.63142
535.212	1929.7288
535.418	1875.95943
535.625	1849.76428
535.831	1806.5549
536.037	1823.56274
536.244	1817.29257
536.45	1785.54038
536.656	1878.51349
536.862	1848.81256
537.068	1865.4011
537.275	1852.67171
537.481	1857.15203
537.687	1814.10551
537.893	1916.32887
538.099	1911.89889
538.305	1861.83612
538.512	1865.82675
538.718	1894.43631
538.924	1843.6698
539.13	1852.35317
539.336	1817.05957
539.542	1929.7544
539.748	1842.51173
539.954	1945.83258
540.16	1875.66957
540.366	1802.53785
540.572	1864.49819
540.778	1889.87521
540.984	1916.01997
541.19	1904.53956
541.396	1846.79101
541.602	1847.08021
541.807	1808.03882
542.013	1851.06497
542.219	1830.56598
542.425	1882.60922
542.631	1791.47122
542.837	1825.15685
543.042	1847.01202
543.248	1919.10407
543.454	1835.2449
543.66	1919.35054
543.865	1876.28612
544.071	1851.31423
544.277	1847.80182
544.483	1867.78266
544.688	1787.32465
544.894	1952.2737
545.1	1856.05916
545.305	1904.84312
545.511	1879.22453
545.716	1862.41842
545.922	1860.28108
546.128	1803.78044
546.333	1938.99672
546.539	1887.2104
546.744	1863.54787
546.95	1914.21868
547.155	1864.43867
547.361	1895.67064
547.566	1810.69326
547.772	1869.60919
547.977	1887.91753
548.182	1928.2307
548.388	1879.99463
548.593	1906.1313
548.799	1792.36981
549.004	1928.96024
549.209	1850.70945
549.415	1893.12654
549.62	1819.10857
549.825	1883.37936
550.031	1949.71498
550.236	1838.13058
550.441	1897.98786
550.646	1923.22404
550.852	1897.8675
551.057	1900.04429
551.262	1853.6294
551.467	1838.81101
551.672	1913.67099
551.878	1909.64019
552.083	1889.71293
552.288	1902.86516
552.493	1903.16774
552.698	1964.9109
552.903	1877.97736
553.108	1876.31795
553.313	1844.09115
553.518	1909.42321
553.723	1846.5474
553.928	1828.9706
554.133	1940.16524
554.338	1908.93864
554.543	1917.72961
554.748	1968.35573
554.953	1948.35759
555.158	2000.07183
555.363	1933.475
555.568	1916.10799
555.773	1905.32929
555.978	1889.45301
556.182	1965.23136
556.387	1897.22051
556.592	1958.82771
556.797	1973.63692
557.002	1925.27061
557.206	1935.12108
557.411	1945.30314
557.616	1867.8243
557.821	1934.63999
558.025	1907.22414
558.23	1966.20365
558.435	1858.09118
558.64	1863.01516
558.844	1915.16124
559.049	1910.62527
559.253	1941.40194
559.458	1948.11168
559.663	1994.0357
559.867	1946.55377
560.072	1994.9138
560.276	1902.60675
560.481	1906.55592
560.685	1959.25382
560.89	1964.03994
561.094	1868.25516
561.299	1852.45394
561.503	1896.1842
561.708	1918.0184
561.912	1942.71447
562.117	1881.77945
562.321	1881.36166
562.525	1925.08694
562.73	1931.19002
562.934	1845.80742
563.139	1924.08166
563.343	1918.50188
563.547	1916.85096
563.752	1941.13181
563.956	1981.86547
564.16	1921.72705
564.364	1874.01219
564.569	1939.23682
564.773	1924.967
564.977	1881.77945
565.181	1911.02879
565.385	1782.75234
565.59	2004.82571
565.794	1913.28486
565.998	1903.78174
566.202	1914.6456
566.406	1950.28801
566.61	1914.71539
566.814	1971.81618
567.018	1896.97962
567.222	1901.34764
567.426	1945.77097
567.63	1885.89921
567.834	1926.605
568.038	1919.65444
568.242	1904.60024
568.446	1858.7938
568.65	1881.66828
568.854	1868.89534
569.058	1903.79503
569.262	1829.02031
569.466	1908.38956
569.67	1919.65444
569.874	1891.75713
570.078	1875.12812
570.281	1899.88798
570.485	1813.30039
570.689	1975.4032
570.893	1849.5211
571.097	1904.63937
571.3	1819.51482
571.504	1864.50306
571.708	1914.43551
571.912	1819.54147
572.115	1853.86008
572.319	1773.74222
572.523	1897.56565
572.726	1852.0306
572.93	1844.9393
573.133	1907.88588
573.337	1926.24498
573.541	1879.8897
573.744	1853.87477
573.948	1795.32052
574.151	1845.61578
574.355	1891.10929
574.558	1908.45022
574.762	1898.53032
574.965	1867.58769
575.169	1828.9706
575.372	1805.00204
575.576	1828.89353
575.779	1839.14155
