Data from mildly cloudy_Subt2__9__14-22-20-991.txt Node

Date: Mon Oct 13 14:22:20 EDT 2025
User: brett
Spectrometer: USB4F03499
Trigger mode: 4
Integration Time (sec): 4.400000E-4
Scans to average: 1
Electric dark correction enabled: true
Nonlinearity correction enabled: true
Boxcar width: 0
XAxis mode: Wavelengths
Number of Pixels in Spectrum: 3648
>>>>>Begin Spectral Data<<<<<
345.386	38.29746
345.605	38.29746
345.824	38.29746
346.044	62.0498
346.263	43.92707
346.482	-23.77291
346.701	-19.282
346.92	-30.57022
347.139	14.57851
347.358	-7.99126
347.577	-35.07027
347.796	41.6486
348.015	40.54948
348.234	11.18453
348.453	-5.73402
348.672	-5.73757
348.891	20.22612
349.11	-2.35114
349.329	-36.21888
349.548	6.68557
349.767	15.70261
349.986	-36.22873
350.205	-48.59633
350.424	-10.26236
350.643	46.19892
350.862	2.16549
351.08	15.70078
351.299	-29.42268
351.518	-18.15225
351.737	6.68192
351.956	-13.63664
352.174	-1.222
352.393	58.57925
352.612	-12.50639
352.831	-10.25198
353.049	-19.29024
353.268	66.45063
353.487	-12.5127
353.705	-48.64719
353.924	-14.75179
354.143	33.74808
354.361	-1.22338
354.58	-17.0246
354.798	42.83078
355.017	-51.98725
355.236	52.96734
355.454	20.21515
355.673	32.6358
355.891	-30.56904
356.11	-10.24445
356.328	-4.60896
356.547	-24.92794
356.765	-1.223
356.984	-23.80143
357.202	83.40266
357.42	31.51146
357.639	1.03501
357.857	-17.0213
358.076	-0.09404
358.294	4.41742
358.512	-37.33258
358.731	-42.95568
358.949	-36.19783
359.167	-21.53774
359.386	-35.09202
359.604	-9.11821
359.822	15.70686
360.04	23.59591
360.259	-32.81627
360.477	5.55204
360.695	-11.37426
360.913	-26.04011
361.131	-50.88375
361.35	-22.67471
361.568	-7.99901
361.786	-17.0213
362.004	14.56106
362.222	32.64339
362.44	-48.62077
362.658	45.05844
362.876	-1.22139
363.094	1.03428
363.312	20.21906
363.53	-0.09409
363.749	-38.44689
363.967	-27.17503
364.184	10.06348
364.402	7.80625
364.62	32.62821
364.838	-75.68796
365.056	-5.74025
365.274	-17.01866
365.492	21.33808
365.71	29.25505
365.928	-38.45879
366.146	45.06369
366.364	-53.11023
366.581	-20.41269
366.799	-36.22029
367.017	-39.591
367.235	-7.98787
367.453	23.5868
367.67	30.36681
367.888	40.51651
368.106	48.41394
368.323	-5.73358
368.541	64.19239
368.759	-35.09748
368.977	12.32119
369.194	-26.02003
369.412	4.4241
369.629	21.37206
369.847	-5.73336
370.065	25.8621
370.282	1.03472
370.5	-48.66613
370.717	-20.40399
370.935	-23.80143
371.152	45.05146
371.37	-22.66943
371.588	12.30834
371.805	38.28407
372.022	-10.24802
372.24	31.52002
372.457	-7.9891
372.675	8.93297
372.892	55.21242
373.11	-9.12953
373.327	34.87952
373.544	-11.39105
373.762	-32.81246
373.979	-35.05536
374.196	-0.0941
374.414	37.16902
374.631	1.0344
374.848	40.54633
375.066	-14.75805
375.283	-9.1235
375.5	-14.7609
375.717	-29.43976
375.935	24.74172
376.152	-15.89436
376.369	33.76769
376.586	-15.89312
376.803	-58.76958
377.02	14.58134
377.238	-10.2504
377.455	41.67443
377.672	-13.63294
377.889	27.01633
378.106	4.41998
378.323	50.70547
378.54	-0.09407
378.757	7.79962
378.974	26.98592
379.191	5.54495
379.408	-5.73513
379.625	34.8998
379.842	-10.25596
380.059	25.86109
380.276	14.58814
380.493	6.67596
380.71	14.57569
380.927	34.90251
381.143	-3.47963
381.36	24.74364
381.577	-52.02149
381.794	-22.66943
382.011	16.83061
382.228	-3.47747
382.444	-57.60003
382.661	43.91346
382.878	-5.73913
383.095	-5.73802
383.311	59.71568
383.528	5.54795
383.745	-20.41982
383.962	-2.35105
384.178	-37.31959
384.395	7.80625
384.612	10.07523
384.828	-53.10203
385.045	-35.09748
385.261	-26.05018
385.478	34.912
385.695	17.95372
385.911	-1.22186
386.128	-2.34996
386.344	47.36583
386.561	39.43199
386.777	13.43816
386.994	-21.51611
387.21	-27.16872
387.427	4.41895
387.643	31.52125
387.86	30.34806
388.076	8.93089
388.292	-3.47936
388.509	16.83779
388.725	10.0717
388.942	11.19884
389.158	77.76549
389.374	-4.60771
389.591	-6.86163
389.807	1.03424
390.023	-45.21506
390.239	-22.64142
390.456	-7.99591
390.672	-9.12103
390.888	-2.35178
391.104	4.41947
391.321	-17.01932
391.537	29.2596
391.753	1.03408
391.969	-11.38086
392.185	12.32502
392.401	-11.37206
392.618	-40.71869
392.834	39.39072
393.05	4.42067
393.266	12.32024
393.482	-24.92504
393.698	7.81111
393.914	28.11045
394.13	-19.282
394.346	-49.74063
394.562	-1.22186
394.778	2.16372
394.994	28.12351
395.21	-68.929
395.426	-17.02592
395.642	2.16347
395.858	20.22534
396.073	78.88931
396.289	7.79721
396.505	10.05881
396.721	-2.35133
396.937	-3.47761
397.153	37.14019
397.369	-30.57853
397.584	57.51229
397.8	-23.78852
398.016	13.44699
398.232	24.72448
398.447	2.16022
398.663	-29.43406
398.879	-3.47815
399.094	11.19015
399.31	-15.88391
399.526	11.18237
399.741	-3.48071
399.957	-2.35087
400.173	75.53795
400.388	-7.99436
400.604	29.23919
400.82	-22.66855
401.035	-5.74136
401.251	-23.79497
401.466	26.98592
401.682	30.3821
401.897	-45.2238
402.113	-38.42466
402.328	20.23713
402.544	-38.44095
402.759	26.98488
402.974	6.6788
403.19	-45.23781
403.405	13.44283
403.621	30.38446
403.836	24.73309
404.051	26.97341
404.267	20.22455
404.482	-27.19295
404.697	15.70808
404.913	49.54874
405.128	-27.20142
405.343	7.80323
405.559	-12.5161
405.774	36.00283
405.989	-38.43354
406.204	14.58134
406.42	8.93539
406.635	36.03213
406.85	-2.34869
407.065	-18.14732
407.28	17.96972
407.495	-12.51173
407.71	12.31547
407.926	7.80656
408.141	46.18099
408.356	46.15062
408.571	45.04971
408.786	73.2066
409.001	-0.09399
409.216	-36.20905
409.431	37.15314
409.646	3.29116
409.861	-6.87121
410.076	-32.81119
410.291	13.44438
410.506	11.19536
410.721	-7.99312
410.936	15.70504
411.15	-48.6076
411.365	29.22452
411.58	28.10827
411.795	4.41571
412.01	21.35212
412.225	3.28912
412.439	-17.02196
412.654	21.32902
412.869	4.41793
413.084	-5.73757
413.299	31.50779
413.513	27.00897
413.728	-18.15506
413.943	-40.7329
414.157	14.57625
414.372	-1.22167
414.587	1.0342
414.801	-26.0391
415.016	29.25732
415.231	80.00991
415.445	28.13334
415.66	48.3878
415.874	17.93644
416.089	8.93435
416.304	101.4915
416.518	12.31404
416.733	-22.6589
416.947	-15.89682
417.162	-0.09402
417.376	-19.27976
417.59	-15.89497
417.805	-2.35169
418.019	-31.72548
418.234	29.23241
418.448	8.92745
418.663	-4.61147
418.877	-5.72806
419.091	26.97133
419.306	-0.09404
419.52	8.92882
419.734	48.40833
419.949	-13.61876
420.163	12.31976
420.377	10.05648
420.591	-0.09398
420.806	16.82411
421.02	29.26414
421.234	7.80353
421.448	-44.08788
421.663	67.64001
421.877	-44.06068
422.091	10.06193
422.305	3.2909
422.519	30.37856
422.733	56.33567
422.947	-38.44689
423.161	11.18151
423.376	13.45063
423.59	5.5426
423.804	-9.12563
424.018	4.41947
424.232	-17.01077
424.446	-15.88636
424.66	39.35883
424.874	13.44699
425.088	42.79086
425.302	-16.99964
425.515	1.03456
425.729	11.17763
425.943	55.21028
426.157	21.34385
426.371	5.54431
426.585	-39.57874
426.799	-24.90384
427.013	34.86875
427.226	6.67235
427.44	-42.94243
427.654	30.35508
427.868	-32.80359
428.081	-30.56904
428.295	25.8471
428.509	36.02234
428.723	19.08059
428.936	-88.03268
429.15	37.13445
429.364	49.51814
429.577	48.42331
429.791	-13.61719
430.005	-27.18135
430.218	77.68749
430.432	11.18669
430.645	32.59926
430.859	29.23919
431.073	-30.5643
431.286	26.99743
431.5	50.63107
431.713	-32.80866
431.927	-10.24841
432.14	23.59773
432.354	-11.37954
432.567	31.50169
432.781	11.19188
432.994	60.83592
433.207	16.80922
433.421	-44.08277
433.634	61.97265
433.848	-12.50156
434.061	31.50901
434.274	16.82151
434.488	14.5723
434.701	-4.60522
434.914	8.93608
435.127	51.80323
435.341	41.66312
435.554	-3.48044
435.767	51.84744
435.98	4.41793
436.194	6.66926
436.407	16.84498
436.62	40.52121
436.833	14.57795
437.046	28.12133
437.259	22.47521
437.473	33.74026
437.686	30.3821
437.899	24.73022
438.112	-6.86057
438.325	6.67544
438.538	17.95302
438.751	7.80444
438.964	-91.29757
439.177	1.0338
439.39	3.29014
439.603	84.55556
439.816	31.49194
440.029	8.93504
440.242	46.1204
440.455	46.11685
440.668	33.75722
440.881	47.33814
441.094	19.09759
441.306	57.46538
441.519	70.94572
441.732	12.31738
441.945	51.81125
442.158	12.32263
442.37	8.93955
442.583	50.66622
442.796	31.50169
443.009	8.93366
443.222	55.18251
443.434	60.80537
443.647	2.16247
443.86	32.61308
444.072	34.87548
444.285	55.18038
444.498	36.00283
444.71	94.62027
444.923	38.28556
445.136	-6.86508
445.348	48.40086
445.561	16.81762
445.773	90.22516
445.986	59.69258
446.198	20.19955
446.411	34.88087
446.623	4.41708
446.836	-14.76548
447.048	37.13014
447.261	67.57459
447.473	12.30739
447.686	14.55714
447.898	5.54388
448.11	31.51023
448.323	-20.35544
448.535	29.21889
448.748	-11.36899
448.96	2.16272
449.172	86.78265
449.385	6.67106
449.597	72.09698
449.809	51.78522
450.021	33.75069
450.234	79.98518
450.446	28.08445
450.658	28.10176
450.87	24.71398
451.083	90.05115
451.295	16.81892
451.507	41.61168
451.719	86.73573
451.931	37.14882
452.143	40.51338
452.356	32.61686
452.568	47.29225
452.78	12.3055
452.992	12.30361
453.204	37.11868
453.416	122.8733
453.628	94.65678
453.84	41.59091
454.052	58.54757
454.264	33.74417
454.476	47.23578
454.688	42.75779
454.9	56.32912
455.112	50.60968
455.324	58.57019
455.536	66.48146
455.747	54.01794
455.959	-10.2405
456.171	22.43542
456.383	75.48824
456.595	55.18677
456.807	22.45958
457.018	61.90808
457.23	55.15483
457.442	59.65346
457.654	24.7283
457.865	36.00005
458.077	59.6397
458.289	34.84592
458.501	19.08354
458.712	100.21755
458.924	112.60488
459.136	14.54933
459.347	92.39366
459.559	50.64277
459.77	59.65116
459.982	70.96214
460.194	50.63497
460.405	42.7118
460.617	38.22793
460.828	14.57005
461.04	70.88029
461.251	25.82125
461.463	23.56504
461.674	52.92837
461.886	42.71999
462.097	43.88632
462.309	-11.36549
462.52	54.02626
462.731	106.9432
462.943	67.60332
463.154	83.32225
463.366	-11.36549
463.577	32.60931
463.788	52.82474
464	78.75578
464.211	90.06498
464.422	94.58386
464.634	94.64582
464.845	92.25881
465.056	126.24068
465.267	62.96171
465.478	84.45762
465.69	95.66506
465.901	66.41478
466.112	104.74208
466.323	108.14681
466.534	123.90345
466.745	49.446
466.957	113.76906
467.168	75.40975
467.379	92.33671
467.59	67.54595
467.801	65.21619
468.012	82.07389
468.223	122.72666
468.434	92.32606
468.645	121.67235
468.856	88.8342
469.067	131.65537
469.278	117.00524
469.489	108.09274
469.7	87.74371
469.911	97.92574
470.122	157.59437
470.333	154.22414
470.543	157.70324
470.754	43.8711
470.965	145.19606
471.176	164.45346
471.387	142.9818
471.598	116.98737
471.808	124.94673
472.019	81.03971
472.23	75.38372
472.441	123.74212
472.651	117.1444
472.862	158.79682
473.073	87.75042
473.283	161.97605
473.494	106.86546
473.705	148.66327
473.915	121.54162
474.126	164.15209
474.337	121.52303
474.547	112.5315
474.758	176.51697
474.968	151.70524
475.179	132.75862
475.389	116.89831
475.6	115.7185
475.81	141.71162
476.021	147.3698
476.231	219.23981
476.442	164.19579
476.652	200.22061
476.863	115.84611
477.073	136.04034
477.284	114.62669
477.494	177.54426
477.704	191.00716
477.915	231.59973
478.125	196.88569
478.335	195.62976
478.546	148.47002
478.756	246.03075
478.966	199.97015
479.177	232.70243
479.387	208.93837
479.597	244.79145
479.807	230.23537
480.018	236.08984
480.228	260.61694
480.438	275.17974
480.648	277.67884
480.858	236.60388
481.068	214.66725
481.279	278.44051
481.489	314.17037
481.699	280.65521
481.909	237.27312
482.119	373.57035
482.329	308.47157
482.539	367.67797
482.749	346.67624
482.959	369.72833
483.169	366.15584
483.379	388.86103
483.589	412.3185
483.799	366.6727
484.009	398.27432
484.219	424.51378
484.429	367.85616
484.639	444.14774
484.849	361.19222
485.059	472.45928
485.268	380.73871
485.478	531.13116
485.688	417.80644
485.898	475.91582
486.108	433.60611
486.317	445.86073
486.527	433.04592
486.737	493.29384
486.947	438.942
487.156	554.6056
487.366	450.69106
487.576	490.91191
487.785	445.15457
487.995	440.79237
488.205	457.05023
488.414	602.89336
488.624	489.35822
488.834	543.83874
489.043	541.40098
489.253	493.96987
489.462	526.76704
489.672	688.77221
489.882	556.88352
490.091	597.87066
490.301	583.116
490.51	717.94032
490.72	573.44335
490.929	642.32308
491.138	602.21085
491.348	651.03691
491.557	655.71992
491.767	721.4189
491.976	631.75903
492.185	733.38749
492.395	716.52001
492.604	858.26349
492.813	691.53587
493.023	856.91611
493.232	839.07008
493.441	878.10157
493.651	879.94248
493.86	1036.09692
494.069	1023.31886
494.278	1107.94946
494.488	1108.88685
494.697	1193.16622
494.906	1166.4972
495.115	1405.67098
495.324	1308.62132
495.533	1539.00582
495.743	1483.54955
495.952	1724.31901
496.161	1650.20364
496.37	1831.66954
496.579	1930.09509
496.788	2150.5971
496.997	2281.86887
497.206	2277.71399
497.415	2401.72545
497.624	2633.1832
497.833	2645.21491
498.042	2997.03824
498.251	2997.13425
498.46	3219.98147
498.669	3292.34425
498.878	3442.78491
499.087	3608.85324
499.296	4004.43249
499.504	4156.59357
499.713	4336.04454
499.922	4649.57
500.131	4746.86217
500.34	5054.03331
500.549	5471.33721
500.757	5615.12421
500.966	5983.84671
501.175	6022.9582
501.384	6572.14165
501.592	6718.2971
501.801	7064.45287
502.01	7531.84922
502.218	7622.705
502.427	8173.90883
502.636	8328.57829
502.844	8714.60215
503.053	9167.96722
503.262	9353.83815
503.47	9757.63699
503.679	9977.78654
503.887	10418.64818
504.096	10686.37231
504.304	11269.33303
504.513	11538.5918
504.721	11794.97723
504.93	11899.47505
505.138	12499.94796
505.347	12889.14159
505.555	13092.95164
505.764	13569.96584
505.972	13840.43404
506.18	13967.57464
506.389	14448.85071
506.597	14521.8592
506.806	15131.82036
507.014	15426.18261
507.222	15540.43114
507.431	15879.737
507.639	16070.49717
507.847	16499.86443
508.055	16700.17922
508.264	16998.28018
508.472	17145.47735
508.68	17258.40221
508.888	17584.51383
509.096	17881.09456
509.305	17814.24551
509.513	17705.38754
509.721	18160.70902
509.929	18266.78319
510.137	18324.84612
510.345	18633.02493
510.553	18630.89729
510.762	18894.34116
510.97	18831.84369
511.178	18877.60763
511.386	19233.36866
511.594	19091.63828
511.802	19343.52224
512.01	19350.42276
512.218	19260.77751
512.426	19489.34239
512.634	19511.85337
512.842	19559.07151
513.049	19534.78468
513.257	19476.08021
513.465	19675.56976
513.673	19652.56885
513.881	19635.5193
514.089	19736.23041
514.297	19710.06948
514.504	19725.92517
514.712	19763.11225
514.92	19667.49078
515.128	19922.87153
515.336	19588.49086
515.543	19601.59222
515.751	19749.81014
515.959	19642.0578
516.166	19618.16415
516.374	19523.49456
516.582	19782.37088
516.789	19711.18901
516.997	19566.91078
517.205	19548.05873
517.412	19621.55144
517.62	19653.16393
517.827	19580.84733
518.035	19394.71475
518.243	19373.51583
518.45	19194.30745
518.658	19263.28551
518.865	19295.20145
519.073	19276.38207
519.28	19097.44404
519.488	19120.31041
519.695	19036.92255
519.902	18871.94714
520.11	18947.83039
520.317	19125.65938
520.525	19002.32869
520.732	18749.45126
520.939	18906.79731
521.147	18776.65546
521.354	18623.77389
521.561	18800.41488
521.769	18714.1657
521.976	18664.4493
522.183	18800.38067
522.391	18538.98292
522.598	18922.19356
522.805	18698.43848
523.012	18634.06109
523.219	18587.67555
523.427	18643.56493
523.634	18769.98412
523.841	18547.69942
524.048	18632.28454
524.255	18810.31532
524.462	18765.57484
524.669	18565.79034
524.877	18908.46274
525.084	18634.54181
525.291	18574.62281
525.498	18749.39901
525.705	18764.69921
525.912	19036.59984
526.119	18780.68773
526.326	18822.97842
526.533	18839.90631
526.74	19040.016
526.947	18904.48718
527.153	19015.54502
527.36	18911.60225
527.567	19048.72282
527.774	19006.75488
527.981	19065.46523
528.188	18907.31263
528.395	19167.18838
528.602	18865.6933
528.808	19038.62946
529.015	18972.50531
529.222	19270.41218
529.429	18982.02272
529.635	19206.20575
529.842	18998.61844
530.049	18973.05013
530.256	19017.0995
530.462	19227.52872
530.669	19059.33822
530.876	19039.30993
531.082	19116.44197
531.289	19099.52008
531.495	19216.68633
531.702	19289.08416
531.909	19306.56257
532.115	19506.01075
532.322	19068.26105
532.528	19216.50193
532.735	19394.64043
532.941	19122.30955
533.148	19029.24717
533.354	19314.06273
533.561	19307.32538
533.767	19280.99591
533.974	19138.55597
534.18	19122.62499
534.387	19035.70068
534.593	19058.39485
534.799	19056.2344
535.006	19246.57985
535.212	19180.87349
535.418	19103.6001
535.625	19315.45348
535.831	19231.26784
536.037	18970.11873
536.244	19077.16937
536.45	18965.89297
536.656	19070.6838
536.862	19264.47951
537.068	19267.38594
537.275	19178.79816
537.481	19114.79479
537.687	19380.00016
537.893	19448.30114
538.099	19498.08527
538.305	19205.53189
538.512	19251.95746
538.718	19138.32815
538.924	19324.75504
539.13	19080.4874
539.336	19362.10111
539.542	19078.48209
539.748	19204.91775
539.954	19067.22938
540.16	19324.52668
540.366	19243.90532
540.572	19005.03335
540.778	19192.56567
540.984	19036.80309
541.19	19136.82585
541.396	19138.32815
541.602	19013.09689
541.807	18979.11965
542.013	19007.05808
542.219	18762.17133
542.425	18974.14626
542.631	19000.74607
542.837	18834.71296
543.042	19057.46155
543.248	18776.9269
543.454	18726.01572
543.66	18832.55978
543.865	18565.04923
544.071	18824.56518
544.277	18725.46918
544.483	18757.05738
544.688	18635.3763
544.894	18872.53363
545.1	18710.38866
545.305	18574.02361
545.511	18751.19105
545.716	18724.50763
545.922	18600.9576
546.128	18640.92553
546.333	18668.16034
546.539	18750.48801
546.744	18562.99354
546.95	18593.63695
547.155	18472.034
547.361	18699.84166
547.566	18505.32955
547.772	18513.04006
547.977	18667.31817
548.182	18255.14766
548.388	18523.3128
548.593	18596.14068
548.799	18435.30189
549.004	18309.44014
549.209	18476.10038
549.415	18522.85344
549.62	18331.36374
549.825	18487.15677
550.031	18413.45361
550.236	18489.0575
550.441	18310.91748
550.646	18412.01199
550.852	18519.64434
551.057	18392.51233
551.262	18362.97484
551.467	18465.43788
551.672	18369.31689
551.878	18548.87407
552.083	18448.14503
552.288	18289.27699
552.493	18389.86674
552.698	18235.42657
552.903	18175.75557
553.108	18449.36271
553.313	18303.4511
553.518	18149.88442
553.723	18334.74569
553.928	18441.81302
554.133	18315.46705
554.338	18086.5827
554.543	18522.99303
554.748	18130.23098
554.953	18327.32389
555.158	18484.97773
555.363	18392.16221
555.568	18089.96736
555.773	18342.43684
555.978	18241.70617
556.182	18232.87879
556.387	18289.53703
556.592	18076.01227
556.797	18185.9685
557.002	17961.39875
557.206	18169.95607
557.411	18085.83956
557.616	18200.36906
557.821	18244.20031
558.025	18319.13338
558.23	18036.95012
558.435	18058.70154
558.64	18085.93577
558.844	18012.63612
559.049	18186.44514
559.253	18126.56981
559.458	17963.75521
559.663	18164.47333
559.867	18034.30351
560.072	17933.79781
560.276	17999.83278
560.481	17987.88998
560.685	17705.9279
560.89	17783.25674
561.094	17758.5198
561.299	17642.23613
561.503	17449.21196
561.708	17766.24812
561.912	17776.28446
562.117	17431.59792
562.321	17667.62392
562.525	17740.32521
562.73	17606.48136
562.934	17691.43241
563.139	17464.09959
563.343	17572.10629
563.547	17572.88819
563.752	17602.74086
563.956	17459.19178
564.16	17602.43987
564.364	17451.89053
564.569	17256.43991
564.773	17414.15211
564.977	17298.97061
565.181	17337.39575
565.385	17383.9522
565.59	17386.99442
565.794	17254.5298
565.998	17429.22175
566.202	17297.18556
566.406	17075.80916
566.61	17283.55902
566.814	17158.92182
567.018	17269.64029
567.222	17037.997
567.426	16982.03818
567.63	16977.33295
567.834	16946.45794
568.038	17124.68802
568.242	16700.31011
568.446	16931.47611
568.65	16866.25183
568.854	16803.80162
569.058	16995.10321
569.262	16779.53635
569.466	16988.74819
569.67	16846.47123
569.874	16680.23559
570.078	16843.60689
570.281	16799.21941
570.485	16819.20285
570.689	16515.3249
570.893	16708.39362
571.097	16629.56468
571.3	16564.67963
571.504	16618.65197
571.708	16482.59086
571.912	16542.13381
572.115	16536.29407
572.319	16297.11465
572.523	16355.65656
572.726	16338.09028
572.93	16210.54662
573.133	16368.38723
573.337	16177.83328
573.541	16173.01286
573.744	16050.902
573.948	16256.32046
574.151	16031.92284
574.355	16068.03918
574.558	16069.43676
574.762	16063.60216
574.965	15721.81916
575.169	16097.27657
575.372	16006.01627
