Data from Sun blanked_Subt2__0__09-54-16-966.txt Node

Date: Tue Sep 23 09:54:16 EDT 2025
User: brett
Spectrometer: USB4F03499
Trigger mode: 4
Integration Time (sec): 1.000000E-1
Scans to average: 1
Electric dark correction enabled: true
Nonlinearity correction enabled: true
Boxcar width: 0
XAxis mode: Wavelengths
Number of Pixels in Spectrum: 3648
>>>>>Begin Spectral Data<<<<<
0	-196.45991
0.225	-196.45991
0.449	-196.45991
0.674	-126.56425
0.898	-193.78138
1.123	-199.4259
1.347	-208.77929
1.572	-128.3464
1.796	11.8706
2.021	-43.22555
2.245	-82.05266
2.469	-96.08704
2.694	-109.61682
2.918	27.89029
3.143	18.73417
3.367	208.13821
3.591	593.30876
3.815	2294.74212
4.04	65570.53721
4.264	65643.93358
4.488	65565.95607
4.712	65513.32436
4.936	65549.92774
5.161	65680.70174
5.385	65639.34086
5.609	65584.28493
5.833	65522.47094
6.057	65554.50637
6.281	65586.57684
6.505	65620.97727
6.729	65517.89729
6.953	65673.80413
7.177	65563.66577
7.401	65581.99319
7.625	65561.37565
7.849	65604.91867
8.073	65625.56708
8.297	65577.41026
8.521	65620.97727
8.744	65630.15761
8.968	65655.41859
9.192	65653.12122
9.416	65676.10315
9.64	65630.15761
9.863	65627.86225
10.087	65620.97727
10.311	65616.38819
10.535	65538.48429
10.758	65501.89511
10.982	65591.16122
11.205	65529.33273
11.429	65586.57684
11.653	65575.11906
11.876	65527.04529
12.1	65616.38819
12.323	65653.12122
12.547	65604.91867
12.77	65627.86225
12.994	65549.92774
13.217	65609.50593
13.441	65611.79984
13.664	65627.86225
13.887	65616.38819
14.111	65584.28493
14.334	65479.04986
14.557	65575.11906
14.781	65556.79595
15.004	65531.62036
15.227	65552.21696
15.451	65632.45315
15.674	65529.33273
15.897	65481.33359
16.12	65581.99319
16.343	65588.86894
16.567	65689.90114
16.79	65607.21221
17.013	65488.18585
17.236	65595.74631
17.459	65575.11906
17.682	65586.57684
17.905	65575.11906
18.128	65632.45315
18.351	65581.99319
18.574	65543.06113
18.797	65609.50593
19.02	65575.11906
19.243	65639.34086
19.466	65545.34982
19.689	65616.38819
19.911	65634.74887
20.134	65643.93358
20.357	65565.95607
20.58	65579.70163
20.803	65673.80413
21.025	65572.82804
21.248	65595.74631
21.471	65533.90815
21.694	65565.95607
21.916	65595.74631
22.139	65676.10315
22.362	65600.33213
22.584	65607.21221
22.807	65565.95607
23.029	65570.53721
23.252	65559.08571
23.475	65520.18403
23.697	65664.60989
23.92	65611.79984
24.142	65565.95607
24.365	65552.21696
24.587	65575.11906
24.809	65570.53721
25.032	65513.32436
25.254	65529.33273
25.477	65611.79984
25.699	65584.28493
25.921	65575.11906
26.144	65531.62036
26.366	65648.52704
26.588	65552.21696
26.81	65630.15761
27.033	65595.74631
27.255	65501.89511
27.477	65579.70163
27.699	65588.86894
27.921	65602.62531
28.144	65570.53721
28.366	65552.21696
28.588	65685.30107
28.81	65664.60989
29.032	65568.24655
29.254	65588.86894
29.476	65559.08571
29.698	65588.86894
29.92	65584.28493
30.142	65614.09392
30.364	65598.03913
30.586	65630.15761
30.808	65671.50529
31.029	65637.04478
31.251	65618.68264
31.473	65563.66577
31.695	65591.16122
31.917	65581.99319
32.139	65561.37565
32.36	65522.47094
32.582	65653.12122
32.804	65643.93358
33.026	65497.32465
33.247	65559.08571
33.469	65616.38819
33.691	65561.37565
33.912	65653.12122
34.134	65460.78629
34.355	65637.04478
34.577	65614.09392
34.798	65536.19613
35.02	65568.24655
35.242	65588.86894
35.463	65662.31179
35.684	65577.41026
35.906	65701.40454
36.127	65602.62531
36.349	65511.03815
36.57	65598.03913
36.792	65609.50593
37.013	65609.50593
37.234	65572.82804
37.456	65545.34982
37.677	65646.23022
37.898	65586.57684
38.119	65660.01387
38.341	65556.79595
38.562	65609.50593
38.783	65561.37565
39.004	65579.70163
39.225	65632.45315
39.447	65561.37565
39.668	65598.03913
39.889	65660.01387
40.11	65586.57684
40.331	65506.46628
40.552	65666.90817
40.773	65570.53721
40.994	65607.21221
41.215	65579.70163
41.436	65630.15761
41.657	65570.53721
41.878	65563.66577
42.099	65641.63713
42.32	65586.57684
42.54	65529.33273
42.761	65593.45367
42.982	65627.86225
43.203	65643.93358
43.424	65650.82404
43.645	65561.37565
43.865	65598.03913
44.086	65561.37565
44.307	65609.50593
44.527	65662.31179
44.748	65570.53721
44.969	65598.03913
45.189	65627.86225
45.41	65586.57684
45.631	65474.48291
45.851	65556.79595
46.072	65598.03913
46.292	65511.03815
46.513	65632.45315
46.733	65485.90159
46.954	65611.79984
47.174	65673.80413
47.395	65692.20145
47.615	65543.06113
47.836	65536.19613
48.056	65643.93358
48.276	65600.33213
48.497	65533.90815
48.717	65538.48429
48.937	65497.32465
49.158	65618.68264
49.378	65616.38819
49.598	65591.16122
49.818	65520.18403
50.038	65524.75802
50.259	65632.45315
50.479	65669.20664
50.699	65598.03913
50.919	65593.45367
51.139	65575.11906
51.359	65602.62531
51.579	65620.97727
51.799	65618.68264
52.02	65604.91867
52.24	65568.24655
52.46	65609.50593
52.68	65625.56708
52.899	65570.53721
53.119	65595.74631
53.339	65637.04478
53.559	65586.57684
53.779	65506.46628
53.999	65527.04529
54.219	65463.06863
54.439	65648.52704
54.658	65683.00131
54.878	65584.28493
55.098	65623.27208
55.318	65561.37565
55.538	65533.90815
55.757	65584.28493
55.977	65595.74631
56.197	65524.75802
56.416	65598.03913
56.636	65595.74631
56.855	65618.68264
57.075	65533.90815
57.295	65630.15761
57.514	65671.50529
57.734	65568.24655
57.953	65584.28493
58.173	65575.11906
58.392	65611.79984
58.612	65620.97727
58.831	65625.56708
59.051	65563.66577
59.27	65497.32465
59.489	65579.70163
59.709	65593.45367
59.928	65614.09392
60.147	65598.03913
60.367	65623.27208
60.586	65545.34982
60.805	65604.91867
61.024	65586.57684
61.244	65666.90817
61.463	65600.33213
61.682	65577.41026
61.901	65565.95607
62.12	65623.27208
62.34	65586.57684
62.559	65591.16122
62.778	65467.63382
62.997	65611.79984
63.216	65655.41859
63.435	65648.52704
63.654	65497.32465
63.873	65609.50593
64.092	65595.74631
64.311	65536.19613
64.53	65575.11906
64.749	65593.45367
64.968	65581.99319
65.187	65678.40235
65.405	65595.74631
65.624	65591.16122
65.843	65570.53721
66.062	65579.70163
66.281	65543.06113
66.499	65666.90817
66.718	65648.52704
66.937	65565.95607
67.156	65581.99319
67.374	65620.97727
67.593	65483.6175
67.812	65591.16122
68.03	65602.62531
68.249	65650.82404
68.467	65620.97727
68.686	65554.50637
68.905	65543.06113
69.123	65712.91258
69.342	65586.57684
69.56	65616.38819
69.779	65689.90114
69.997	65563.66577
70.216	65604.91867
70.434	65579.70163
70.652	65549.92774
70.871	65595.74631
71.089	65623.27208
71.307	65664.60989
71.526	65572.82804
71.744	65630.15761
71.962	65623.27208
72.181	65627.86225
72.399	65620.97727
72.617	65577.41026
72.835	65561.37565
73.054	65630.15761
73.272	65607.21221
73.49	65618.68264
73.708	65671.50529
73.926	65662.31179
74.144	65657.71614
74.362	65572.82804
74.58	65607.21221
74.798	65604.91867
75.016	65588.86894
75.234	65620.97727
75.452	65595.74631
75.67	65559.08571
75.888	65632.45315
76.106	65533.90815
76.324	65666.90817
76.542	65671.50529
76.76	65591.16122
76.978	65602.62531
77.196	65634.74887
77.413	65561.37565
77.631	65538.48429
77.849	65646.23022
78.067	65556.79595
78.284	65554.50637
78.502	65611.79984
78.72	65611.79984
78.938	65666.90817
79.155	65648.52704
79.373	65602.62531
79.59	65648.52704
79.808	65611.79984
80.026	65637.04478
80.243	65620.97727
80.461	65511.03815
80.678	65495.03969
80.896	65554.50637
81.113	65584.28493
81.331	65616.38819
81.548	65410.61903
81.766	65549.92774
81.983	65572.82804
82.2	65623.27208
82.418	65678.40235
82.635	65543.06113
82.852	65447.09597
83.07	65593.45367
83.287	65604.91867
83.504	65570.53721
83.722	65497.32465
83.939	65586.57684
84.156	65490.47028
84.373	65643.93358
84.591	65602.62531
84.808	65588.86894
85.025	65549.92774
85.242	65623.27208
85.459	65581.99319
85.676	65593.45367
85.893	65660.01387
86.11	65575.11906
86.327	65577.41026
86.544	65588.86894
86.761	65618.68264
86.978	65549.92774
87.195	65584.28493
87.412	65694.50194
87.629	65639.34086
87.846	65600.33213
88.063	65515.61074
88.28	65593.45367
88.497	65602.62531
88.713	65632.45315
88.93	65657.71614
89.147	65618.68264
89.364	65559.08571
89.58	65586.57684
89.797	65559.08571
90.014	65588.86894
90.231	65536.19613
90.447	65614.09392
90.664	65559.08571
90.881	65568.24655
91.097	65522.47094
91.314	65529.33273
91.53	65607.21221
91.747	65577.41026
91.963	65641.63713
92.18	65593.45367
92.396	65593.45367
92.613	65579.70163
92.829	65678.40235
93.046	65662.31179
93.262	65653.12122
93.479	65561.37565
93.695	65568.24655
93.911	65602.62531
94.128	65653.12122
94.344	65515.61074
94.56	65554.50637
94.777	65701.40454
94.993	65632.45315
95.209	65527.04529
95.426	65374.18629
95.642	65655.41859
95.858	65616.38819
96.074	65600.33213
96.29	65666.90817
96.506	65595.74631
96.723	65577.41026
96.939	65648.52704
97.155	65637.04478
97.371	65586.57684
97.587	65618.68264
97.803	65620.97727
98.019	65611.79984
98.235	65554.50637
98.451	65643.93358
98.667	65497.32465
98.883	65634.74887
99.099	65666.90817
99.315	65639.34086
99.53	65579.70163
99.746	65611.79984
99.962	65646.23022
100.178	65602.62531
100.394	65604.91867
100.61	65671.50529
100.825	65556.79595
101.041	65634.74887
101.257	65581.99319
101.473	65586.57684
101.688	65568.24655
101.904	65625.56708
102.12	65593.45367
102.335	65579.70163
102.551	65625.56708
102.766	65533.90815
102.982	65611.79984
103.198	65632.45315
103.413	65591.16122
103.629	65623.27208
103.844	65616.38819
104.06	65604.91867
104.275	65552.21696
104.49	65570.53721
104.706	65643.93358
104.921	65007.70645
105.137	65591.16122
105.352	65524.75802
105.567	65604.91867
105.783	65581.99319
105.998	65575.11906
106.213	65556.79595
106.429	65641.63713
106.644	65625.56708
106.859	65584.28493
107.074	65458.50414
107.29	65643.93358
107.505	65609.50593
107.72	65538.48429
107.935	65543.06113
108.15	65575.11906
108.365	65655.41859
108.58	65552.21696
108.795	65545.34982
109.01	65552.21696
109.226	65676.10315
109.441	65437.97257
109.656	65655.41859
109.871	65488.18585
110.085	65556.79595
110.3	65586.57684
110.515	65664.60989
110.73	65501.89511
110.945	65614.09392
111.16	65556.79595
111.375	65561.37565
111.59	65609.50593
111.804	65579.70163
112.019	65581.99319
112.234	65618.68264
112.449	65556.79595
112.663	65595.74631
112.878	65618.68264
113.093	65598.03913
113.308	65511.03815
113.522	65595.74631
113.737	65717.51709
113.951	65565.95607
114.166	65598.03913
114.381	65586.57684
114.595	65609.50593
114.81	65579.70163
115.024	65593.45367
115.239	65565.95607
115.453	65627.86225
115.668	65611.79984
115.882	65559.08571
116.097	65611.79984
116.311	65694.50194
116.525	65586.57684
116.74	65701.40454
116.954	65549.92774
117.169	65598.03913
117.383	65579.70163
117.597	65536.19613
117.811	65595.74631
118.026	65511.03815
118.24	65547.63869
118.454	65600.33213
118.668	65602.62531
118.883	65602.62531
119.097	65584.28493
119.311	65584.28493
119.525	65586.57684
119.739	65591.16122
119.953	65611.79984
120.167	65469.91667
120.381	65620.97727
120.595	65586.57684
120.809	65627.86225
121.023	65572.82804
121.237	65611.79984
121.451	65620.97727
121.665	65616.38819
121.879	65584.28493
122.093	65520.18403
122.307	65692.20145
122.521	65632.45315
122.735	65520.18403
122.949	65616.38819
123.163	65671.50529
123.376	65554.50637
123.59	65533.90815
123.804	65591.16122
124.018	65627.86225
124.231	65639.34086
124.445	65662.31179
124.659	65517.89729
124.872	65499.60979
125.086	65595.74631
125.3	65591.16122
125.513	65572.82804
125.727	65627.86225
125.94	65575.11906
126.154	65595.74631
126.368	65643.93358
126.581	65618.68264
126.795	65627.86225
127.008	65623.27208
127.222	65655.41859
127.435	65643.93358
127.648	65641.63713
127.862	65570.53721
128.075	65634.74887
128.289	65552.21696
128.502	65646.23022
128.715	65581.99319
128.929	65696.80262
129.142	65623.27208
129.355	65593.45367
129.568	65531.62036
129.782	65570.53721
129.995	65515.61074
130.208	65616.38819
130.421	65637.04478
130.634	65630.15761
130.848	65552.21696
131.061	65515.61074
131.274	65556.79595
131.487	65655.41859
131.7	65627.86225
131.913	65554.50637
132.126	65600.33213
132.339	65504.18061
132.552	65415.17622
132.765	65522.47094
132.978	65600.33213
133.191	65623.27208
133.404	65559.08571
133.617	65618.68264
133.83	65570.53721
134.043	65648.52704
134.255	65673.80413
134.468	65572.82804
134.681	65669.20664
134.894	65710.6106
135.107	65639.34086
135.319	65561.37565
135.532	65588.86894
135.745	65554.50637
135.958	65607.21221
136.17	65680.70174
136.383	65584.28493
136.596	65632.45315
136.808	65604.91867
137.021	65543.06113
137.233	65634.74887
137.446	65577.41026
137.659	65616.38819
137.871	65467.63382
138.084	65607.21221
138.296	65568.24655
138.509	65602.62531
138.721	65637.04478
138.934	65584.28493
139.146	65570.53721
139.358	65630.15761
139.571	65508.75213
139.783	65513.32436
139.996	65588.86894
140.208	65533.90815
140.42	65540.77262
140.632	65568.24655
140.845	65620.97727
141.057	65680.70174
141.269	65627.86225
141.481	65602.62531
141.694	65648.52704
141.906	65581.99319
142.118	65699.10349
142.33	65575.11906
142.542	65655.41859
142.754	65563.66577
142.967	65687.60101
143.179	65641.63713
143.391	65529.33273
143.603	65620.97727
143.815	65517.89729
144.027	65598.03913
144.239	65490.47028
144.451	65588.86894
144.663	65600.33213
144.875	65524.75802
145.086	65492.7549
145.298	65545.34982
145.51	65623.27208
145.722	65527.04529
145.934	65616.38819
146.146	65620.97727
146.358	65604.91867
146.569	65655.41859
146.781	65570.53721
146.993	65653.12122
147.205	65506.46628
147.416	65607.21221
147.628	65598.03913
147.84	65556.79595
148.051	65604.91867
148.263	65570.53721
148.475	65643.93358
148.686	65609.50593
148.898	65533.90815
149.109	65517.89729
149.321	65646.23022
149.532	65524.75802
149.744	65581.99319
149.955	65559.08571
150.167	65614.09392
150.378	65600.33213
150.59	65630.15761
150.801	65669.20664
151.013	65655.41859
151.224	65517.89729
151.435	65604.91867
151.647	65517.89729
151.858	65572.82804
152.069	65604.91867
152.281	65607.21221
152.492	65577.41026
152.703	65611.79984
152.914	65476.7663
153.126	65572.82804
153.337	65577.41026
153.548	65673.80413
153.759	65568.24655
153.97	65653.12122
154.181	65637.04478
154.392	65547.63869
154.604	65664.60989
154.815	65627.86225
155.026	65561.37565
155.237	65604.91867
155.448	65497.32465
155.659	65579.70163
155.87	65586.57684
156.081	65565.95607
156.292	65634.74887
156.502	65666.90817
156.713	65563.66577
156.924	65540.77262
157.135	65584.28493
157.346	65600.33213
157.557	65563.66577
157.768	65630.15761
157.978	65671.50529
158.189	65575.11906
158.4	65637.04478
158.611	65575.11906
158.821	65524.75802
159.032	65614.09392
159.243	65545.34982
159.453	65593.45367
159.664	65593.45367
159.875	65554.50637
160.085	65630.15761
160.296	65554.50637
160.507	65614.09392
160.717	65639.34086
160.928	65552.21696
161.138	65756.68559
161.349	65611.79984
161.559	65678.40235
161.77	65609.50593
161.98	65632.45315
162.19	65559.08571
162.401	65614.09392
162.611	65547.63869
162.822	65620.97727
163.032	65614.09392
163.242	65627.86225
163.453	65547.63869
163.663	65650.82404
163.873	65575.11906
164.084	65637.04478
164.294	65648.52704
164.504	65598.03913
164.714	65579.70163
164.924	65581.99319
165.135	65632.45315
165.345	65552.21696
165.555	65591.16122
165.765	65538.48429
165.975	65547.63869
166.185	65595.74631
166.395	65623.27208
166.605	65664.60989
166.815	65653.12122
167.025	65611.79984
167.235	65513.32436
167.445	65710.6106
167.655	65575.11906
167.865	65604.91867
168.075	65588.86894
168.285	65604.91867
168.495	65586.57684
168.705	65522.47094
168.915	65497.32465
169.124	65561.37565
169.334	65563.66577
169.544	65568.24655
169.754	65604.91867
169.964	65559.08571
170.173	65533.90815
170.383	65579.70163
170.593	65586.57684
170.802	65543.06113
171.012	65646.23022
171.222	65609.50593
171.431	65650.82404
171.641	65616.38819
171.851	65671.50529
172.06	65630.15761
172.27	65632.45315
172.479	65565.95607
172.689	65627.86225
172.898	65575.11906
173.108	65618.68264
173.317	65552.21696
173.527	65657.71614
173.736	65662.31179
173.945	65588.86894
174.155	65549.92774
174.364	65552.21696
174.574	65588.86894
174.783	65600.33213
174.992	65538.48429
175.202	65598.03913
175.411	65540.77262
175.62	65627.86225
175.829	65641.63713
176.039	65577.41026
176.248	65547.63869
176.457	65600.33213
176.666	65515.61074
176.875	65632.45315
177.084	65561.37565
177.294	65639.34086
177.503	65653.12122
177.712	65511.03815
177.921	65634.74887
178.13	65602.62531
178.339	65689.90114
178.548	65623.27208
178.757	65591.16122
178.966	65552.21696
179.175	65565.95607
179.384	65609.50593
179.593	65586.57684
179.802	65664.60989
180.011	65591.16122
180.219	65611.79984
180.428	65581.99319
180.637	65581.99319
180.846	65552.21696
181.055	65584.28493
181.263	65609.50593
181.472	65506.46628
181.681	65639.34086
181.89	65575.11906
182.098	65508.75213
182.307	65616.38819
182.516	65577.41026
182.724	65593.45367
182.933	65556.79595
183.142	65680.70174
183.35	65577.41026
183.559	65584.28493
183.767	65600.33213
183.976	65630.15761
184.184	65643.93358
184.393	65570.53721
184.601	65630.15761
184.81	65511.03815
185.018	65634.74887
185.227	65572.82804
185.435	65653.12122
185.644	65556.79595
185.852	65699.10349
186.06	65554.50637
186.269	65554.50637
186.477	65549.92774
186.685	65598.03913
186.894	65508.75213
187.102	65593.45367
187.31	65524.75802
187.518	65598.03913
187.727	65683.00131
187.935	65660.01387
188.143	65600.33213
188.351	65568.24655
188.559	65660.01387
188.768	65522.47094
188.976	65543.06113
189.184	65559.08571
189.392	65556.79595
189.6	65565.95607
189.808	65485.90159
190.016	65627.86225
190.224	65616.38819
190.432	65586.57684
190.64	65591.16122
190.848	65581.99319
191.056	65533.90815
191.264	65572.82804
191.472	65598.03913
191.679	65614.09392
191.887	65607.21221
192.095	65689.90114
192.303	65570.53721
192.511	65620.97727
192.719	65696.80262
192.926	65540.77262
193.134	65696.80262
193.342	65625.56708
193.55	65604.91867
193.757	65598.03913
193.965	65575.11906
194.173	65559.08571
194.38	65664.60989
194.588	65639.34086
194.796	65618.68264
195.003	65543.06113
195.211	65639.34086
195.418	65620.97727
195.626	65687.60101
195.833	65581.99319
196.041	65538.48429
196.248	65598.03913
196.456	65540.77262
196.663	65497.32465
196.871	65627.86225
197.078	65579.70163
197.285	65604.91867
197.493	65579.70163
197.7	65460.78629
197.908	65572.82804
198.115	65614.09392
198.322	65584.28493
198.529	65655.41859
198.737	65673.80413
198.944	65579.70163
199.151	65671.50529
199.358	65637.04478
199.566	65715.21474
199.773	65506.46628
199.98	65602.62531
200.187	65632.45315
200.394	65595.74631
200.601	65474.48291
200.809	65685.30107
201.016	65572.82804
201.223	65565.95607
201.43	65680.70174
201.637	65623.27208
201.844	65627.86225
202.051	65701.40454
202.258	65577.41026
202.465	65618.68264
202.672	65689.90114
202.878	65595.74631
203.085	65623.27208
203.292	65577.41026
203.499	65547.63869
203.706	65595.74631
203.913	65593.45367
204.12	65655.41859
204.326	65637.04478
204.533	65648.52704
204.74	65538.48429
204.947	65586.57684
205.153	65598.03913
205.36	65581.99319
205.567	65687.60101
205.773	65680.70174
205.98	65559.08571
206.187	65602.62531
206.393	65593.45367
206.6	65616.38819
206.806	65657.71614
207.013	65531.62036
207.22	65538.48429
207.426	65648.52704
207.633	65588.86894
207.839	65522.47094
208.046	65554.50637
208.252	65556.79595
208.458	65552.21696
208.665	65579.70163
208.871	65618.68264
209.078	65511.03815
209.284	65602.62531
209.49	65614.09392
209.697	65616.38819
209.903	65655.41859
210.109	65620.97727
210.316	65554.50637
210.522	65634.74887
210.728	65572.82804
210.934	65376.46205
211.14	65616.38819
211.347	65676.10315
211.553	65561.37565
211.759	65584.28493
211.965	65538.48429
212.171	65561.37565
212.377	65527.04529
212.583	65588.86894
212.789	65625.56708
212.996	65575.11906
213.202	65540.77262
213.408	65581.99319
213.614	65588.86894
213.82	65637.04478
214.025	65620.97727
214.231	65666.90817
214.437	65625.56708
214.643	65522.47094
214.849	65586.57684
215.055	65593.45367
215.261	65650.82404
215.467	65584.28493
215.672	65664.60989
215.878	65524.75802
216.084	65643.93358
216.29	65584.28493
216.496	65508.75213
216.701	65552.21696
216.907	65646.23022
217.113	65586.57684
217.318	65517.89729
217.524	65630.15761
